Laatste: Tijd (s),Laatste: Potential 1 (V),Laatste: Potential 2 (V)
0.0,-0.037000000000000005,-6.65
0.0005,-0.042,-6.664
0.001,-0.042,-6.678999999999999
0.0015,-0.042,-6.689
0.002,-0.042,-6.6979999999999995
0.0025,-0.042,-6.718
0.003,-0.042,-6.723
0.0035,-0.042,-6.737
0.004,-0.042,-6.752000000000001
0.0045,-0.037000000000000005,-6.7620000000000005
0.005,-0.042,-6.767
0.0055,-0.042,-6.791
0.006,-0.042,-6.801
0.0065,-0.042,-6.811
0.007,-0.046,-6.825
0.0075,-0.037000000000000005,-6.835
0.008,-0.037000000000000005,-6.845
0.0085,-0.042,-6.855
0.009,-0.037000000000000005,-6.869
0.0095,-0.037000000000000005,-6.874
0.01,-0.042,-6.8839999999999995
0.0105,-0.037000000000000005,-6.9079999999999995
0.011,-0.032,-6.9079999999999995
0.0115,-0.042,-6.922999999999999
0.012,-0.037000000000000005,-6.938
0.0125,-0.032,-6.943
0.013,-0.037000000000000005,-6.952000000000001
0.0135,-0.042,-6.972
0.014,-0.037000000000000005,-6.977
0.0145,-0.037000000000000005,-6.987
0.015,-0.042,-7.006
0.0155,-0.037000000000000005,-7.011
0.016,-0.042,-7.016
0.0165,-0.042,-7.035
0.017,-0.037000000000000005,-7.045
0.0175,-0.032,-7.05
0.018,-0.037000000000000005,-7.06
0.0185,-0.037000000000000005,-7.079
0.019,-0.032,-7.079
0.0195,-0.037000000000000005,-7.093999999999999
0.02,-0.037000000000000005,-7.104
0.0205,-0.037000000000000005,-7.109
0.021,-0.037000000000000005,-7.117999999999999
0.0215,-0.032,-7.127999999999999
0.022,-0.032,-7.132999999999999
0.0225,-0.037000000000000005,-7.148
0.023,-0.037000000000000005,-7.1579999999999995
0.0235,-0.027000000000000003,-7.167000000000001
0.024,-0.032,-7.167000000000001
0.0245,-0.037000000000000005,-7.187
0.025,-0.037000000000000005,-7.197
0.0255,-0.032,-7.2010000000000005
0.026,-0.037000000000000005,-7.216
0.0265,-0.037000000000000005,-7.226
0.027,-0.032,-7.226
0.0275,-0.037000000000000005,-7.2410000000000005
0.028,-0.032,-7.245
0.0285,-0.032,-7.255
0.029,-0.032,-7.265
0.0295,-0.037000000000000005,-7.28
0.03,-0.027000000000000003,-7.28
0.0305,-0.037000000000000005,-7.284
0.031,-0.037000000000000005,-7.294
0.0315,-0.027000000000000003,-7.303999999999999
0.032,-0.037000000000000005,-7.314
0.0325,-0.032,-7.324
0.033,-0.027000000000000003,-7.327999999999999
0.0335,-0.032,-7.332999999999999
0.034,-0.037000000000000005,-7.353
0.0345,-0.032,-7.348
0.035,-0.032,-7.3629999999999995
0.0355,-0.032,-7.372000000000001
0.036,-0.032,-7.377000000000001
0.0365,-0.027000000000000003,-7.382000000000001
0.037,-0.037000000000000005,-7.397
0.0375,-0.027000000000000003,-7.397
0.038,-0.032,-7.407
0.0385,-0.032,-7.4110000000000005
0.039,-0.032,-7.421
0.0395,-0.027000000000000003,-7.421
0.04,-0.032,-7.431
0.0405,-0.027000000000000003,-7.441
0.041,-0.027000000000000003,-7.441
0.0415,-0.032,-7.4510000000000005
0.042,-0.027000000000000003,-7.465
0.0425,-0.027000000000000003,-7.47
0.043,-0.032,-7.47
0.0435,-0.027000000000000003,-7.485
0.044,-0.027000000000000003,-7.48
0.0445,-0.027000000000000003,-7.485
0.045,-0.037000000000000005,-7.499
0.0455,-0.027000000000000003,-7.504
0.046,-0.032,-7.5089999999999995
0.0465,-0.032,-7.519
0.047,-0.027000000000000003,-7.529
0.0475,-0.027000000000000003,-7.524
0.048,-0.032,-7.534
0.0485,-0.027000000000000003,-7.537999999999999
0.049,-0.027000000000000003,-7.537999999999999
0.0495,-0.032,-7.547999999999999
0.05,-0.022000000000000002,-7.553
0.0505,-0.022000000000000002,-7.558
0.051,-0.027000000000000003,-7.563
0.0515,-0.027000000000000003,-7.5729999999999995
0.052,-0.022000000000000002,-7.5729999999999995
0.0525,-0.027000000000000003,-7.577999999999999
0.053,-0.027000000000000003,-7.5920000000000005
0.0535,-0.022000000000000002,-7.587000000000001
0.054,-0.027000000000000003,-7.5920000000000005
0.0545,-0.022000000000000002,-7.607
0.055,-0.027000000000000003,-7.607
0.0555,-0.022000000000000002,-7.607
0.056,-0.032,-7.617000000000001
0.0565,-0.022000000000000002,-7.617000000000001
0.057,-0.027000000000000003,-7.621
0.0575,-0.027000000000000003,-7.631
0.058,-0.027000000000000003,-7.631
0.0585,-0.027000000000000003,-7.631
0.059,-0.027000000000000003,-7.641
0.0595,-0.027000000000000003,-7.641
0.06,-0.022000000000000002,-7.641
0.0605,-0.027000000000000003,-7.651
0.061,-0.022000000000000002,-7.656000000000001
0.0615,-0.017,-7.656000000000001
0.062,-0.027000000000000003,-7.656000000000001
0.0625,-0.022000000000000002,-7.67
0.063,-0.022000000000000002,-7.665
0.0635,-0.022000000000000002,-7.67
0.064,-0.022000000000000002,-7.675
0.0645,-0.022000000000000002,-7.675
0.065,-0.022000000000000002,-7.68
0.0655,-0.022000000000000002,-7.69
0.066,-0.022000000000000002,-7.685
0.0665,-0.022000000000000002,-7.69
0.067,-0.022000000000000002,-7.695
0.0675,-0.022000000000000002,-7.7
0.068,-0.022000000000000002,-7.7
0.0685,-0.027000000000000003,-7.705
0.069,-0.022000000000000002,-7.705
0.0695,-0.022000000000000002,-7.7
0.07,-0.027000000000000003,-7.709
0.0705,-0.017,-7.709
0.071,-0.022000000000000002,-7.709
0.0715,-0.027000000000000003,-7.7139999999999995
0.072,-0.022000000000000002,-7.718999999999999
0.0725,-0.017,-7.718999999999999
0.073,-0.022000000000000002,-7.718999999999999
0.0735,-0.017,-7.729
0.074,-0.017,-7.729
0.0745,-0.022000000000000002,-7.729
0.075,-0.017,-7.734
0.0755,-0.017,-7.734
0.076,-0.022000000000000002,-7.734
0.0765,-0.017,-7.744
0.077,-0.017,-7.739
0.0775,-0.017,-7.744
0.078,-0.022000000000000002,-7.747999999999999
0.0785,-0.017,-7.747999999999999
0.079,-0.022000000000000002,-7.739
0.0795,-0.017,-7.747999999999999
0.08,-0.017,-7.747999999999999
0.0805,-0.017,-7.744
0.081,-0.022000000000000002,-7.747999999999999
0.0815,-0.012,-7.744
0.082,-0.017,-7.739
0.0825,-0.017,-7.744
0.083,-0.006999999999999999,-7.744
0.0835,-0.006999999999999999,-7.739
0.084,-0.012,-7.739
0.0845,-0.012,-7.744
0.085,-0.006999999999999999,-7.739
0.0855,-0.017,-7.734
0.086,-0.012,-7.739
0.0865,-0.012,-7.729
0.087,-0.012,-7.734
0.0875,-0.012,-7.729
0.088,-0.006999999999999999,-7.724
0.0885,-0.012,-7.718999999999999
0.089,-0.017,-7.724
0.0895,-0.012,-7.7139999999999995
0.09,-0.012,-7.709
0.0905,-0.012,-7.709
0.091,-0.006999999999999999,-7.709
0.0915,-0.002,-7.7
0.092,-0.012,-7.705
0.0925,-0.006999999999999999,-7.7
0.093,-0.012,-7.69
0.0935,-0.012,-7.69
0.094,-0.012,-7.695
0.0945,-0.006999999999999999,-7.69
0.095,-0.012,-7.685
0.0955,-0.006999999999999999,-7.69
0.096,-0.006999999999999999,-7.675
0.0965,-0.012,-7.675
0.097,-0.006999999999999999,-7.68
0.0975,-0.006999999999999999,-7.665
0.098,-0.006999999999999999,-7.665
0.0985,-0.006999999999999999,-7.665
0.099,-0.002,-7.656000000000001
0.0995,-0.006999999999999999,-7.646
0.1,-0.017,-7.651
0.1005,-0.006999999999999999,-7.646
0.101,-0.006999999999999999,-7.641
0.1015,-0.012,-7.636
0.102,-0.002,-7.626
0.1025,-0.002,-7.626
0.103,-0.012,-7.626
0.1035,-0.006999999999999999,-7.621
0.104,-0.006999999999999999,-7.612
0.1045,-0.006999999999999999,-7.612
0.105,-0.006999999999999999,-7.607
0.1055,-0.002,-7.602
0.106,-0.006999999999999999,-7.597
0.1065,-0.006999999999999999,-7.597
0.107,-0.002,-7.587000000000001
0.1075,-0.006999999999999999,-7.582000000000001
0.108,-0.006999999999999999,-7.582000000000001
0.1085,-0.002,-7.568
0.109,-0.006999999999999999,-7.568
0.1095,-0.006999999999999999,-7.563
0.11,-0.002,-7.553
0.1105,-0.002,-7.542999999999999
0.111,-0.006999999999999999,-7.542999999999999
0.1115,-0.002,-7.537999999999999
0.112,-0.002,-7.529
0.1125,-0.006999999999999999,-7.524
0.113,-0.002,-7.519
0.1135,-0.002,-7.513999999999999
0.114,-0.012,-7.5089999999999995
0.1145,-0.006999999999999999,-7.504
0.115,-0.002,-7.495
0.1155,-0.002,-7.495
0.116,-0.002,-7.49
0.1165,-0.002,-7.48
0.117,-0.002,-7.475
0.1175,-0.006999999999999999,-7.47
0.118,-0.002,-7.455
0.1185,-0.002,-7.4510000000000005
0.119,-0.006999999999999999,-7.446000000000001
0.1195,0.002,-7.436
0.12,-0.002,-7.421
0.1205,-0.002,-7.426
0.121,0.002,-7.416
0.1215,-0.002,-7.402
0.122,-0.002,-7.402
0.1225,-0.002,-7.397
0.123,-0.002,-7.382000000000001
0.1235,-0.006999999999999999,-7.382000000000001
0.124,-0.002,-7.367999999999999
0.1245,0.002,-7.358
0.125,-0.006999999999999999,-7.358
0.1255,-0.002,-7.348
0.126,0.002,-7.337999999999999
0.1265,-0.002,-7.332999999999999
0.127,-0.006999999999999999,-7.332999999999999
0.1275,0.002,-7.319
0.128,-0.002,-7.303999999999999
0.1285,0.002,-7.2989999999999995
0.129,0.002,-7.289
0.1295,-0.002,-7.28
0.13,-0.006999999999999999,-7.275
0.1305,0.002,-7.26
0.131,0.002,-7.25
0.1315,0.002,-7.25
0.132,0.002,-7.236000000000001
0.1325,0.002,-7.221
0.133,-0.002,-7.221
0.1335,-0.002,-7.211
0.134,0.002,-7.197
0.1345,-0.002,-7.192
0.135,0.002,-7.182
0.1355,0.002,-7.172000000000001
0.136,-0.002,-7.167000000000001
0.1365,0.002,-7.1579999999999995
0.137,0.006999999999999999,-7.143
0.1375,0.002,-7.138
0.138,0.002,-7.132999999999999
0.1385,0.006999999999999999,-7.109
0.139,0.002,-7.104
0.1395,0.002,-7.093999999999999
0.14,0.006999999999999999,-7.084
0.1405,0.002,-7.07
0.141,-0.002,-7.065
0.1415,0.006999999999999999,-7.045
0.142,0.002,-7.035
0.1425,0.006999999999999999,-7.031000000000001
0.143,0.006999999999999999,-7.021
0.1435,0.002,-7.006
0.144,-0.002,-7.001
0.1445,0.006999999999999999,-6.9910000000000005
0.145,0.002,-6.972
0.1455,-0.002,-6.972
0.146,0.006999999999999999,-6.957000000000001
0.1465,0.012,-6.943
0.147,0.002,-6.933
0.1475,0.006999999999999999,-6.928
0.148,0.006999999999999999,-6.9079999999999995
0.1485,0.002,-6.899
0.149,0.006999999999999999,-6.894
0.1495,0.012,-6.874
0.15,0.002,-6.864
0.1505,0.002,-6.855
0.151,0.012,-6.835
0.1515,0.006999999999999999,-6.825
0.152,0.006999999999999999,-6.821000000000001
0.1525,0.006999999999999999,-6.801
0.153,0.006999999999999999,-6.7860000000000005
0.1535,0.006999999999999999,-6.7860000000000005
0.154,0.006999999999999999,-6.767
0.1545,0.012,-6.752000000000001
0.155,0.002,-6.747000000000001
0.1555,0.012,-6.737
0.156,0.012,-6.718
0.1565,0.006999999999999999,-6.707999999999999
0.157,0.012,-6.694
0.1575,0.012,-6.684
0.158,0.002,-6.669
0.1585,0.006999999999999999,-6.659
0.159,0.017,-6.635
0.1595,0.006999999999999999,-6.63
0.16,0.012,-6.62
0.1605,0.012,-6.601
0.161,0.006999999999999999,-6.591
0.1615,0.012,-6.581
0.162,0.017,-6.562
0.1625,0.012,-6.5520000000000005
0.163,0.012,-6.537000000000001
0.1635,0.012,-6.523
0.164,0.012,-6.507999999999999
0.1645,0.006999999999999999,-6.502999999999999
0.165,0.017,-6.479
0.1655,0.012,-6.4639999999999995
0.166,0.006999999999999999,-6.459
0.1665,0.012,-6.44
0.167,0.012,-6.42
0.1675,0.012,-6.41
0.168,0.012,-6.4
0.1685,0.012,-6.381
0.169,0.012,-6.3660000000000005
0.1695,0.012,-6.352
0.17,0.017,-6.337000000000001
0.1705,0.006999999999999999,-6.322
0.171,0.012,-6.308
0.1715,0.022000000000000002,-6.287999999999999
0.172,0.012,-6.278
0.1725,0.012,-6.263999999999999
0.173,0.017,-6.249
0.1735,0.012,-6.23
0.174,0.012,-6.22
0.1745,0.012,-6.2
0.175,0.017,-6.186
0.1755,0.012,-6.181
0.176,0.017,-6.1610000000000005
0.1765,0.012,-6.142
0.177,0.012,-6.132000000000001
0.1775,0.017,-6.112
0.178,0.012,-6.093
0.1785,0.012,-6.077999999999999
0.179,0.012,-6.063
0.1795,0.022000000000000002,-6.044
0.18,0.012,-6.029
0.1805,0.017,-6.02
0.181,0.022000000000000002,-5.995
0.1815,0.017,-5.98
0.182,0.017,-5.966
0.1825,0.017,-5.946000000000001
0.183,0.022000000000000002,-5.932
0.1835,0.012,-5.922000000000001
0.184,0.022000000000000002,-5.897
0.1845,0.017,-5.882999999999999
0.185,0.017,-5.877999999999999
0.1855,0.022000000000000002,-5.853
0.186,0.017,-5.829
0.1865,0.012,-5.819
0.187,0.017,-5.805
0.1875,0.017,-5.78
0.188,0.012,-5.77
0.1885,0.017,-5.751
0.189,0.022000000000000002,-5.731
0.1895,0.017,-5.712000000000001
0.19,0.022000000000000002,-5.697
0.1905,0.027000000000000003,-5.678
0.191,0.017,-5.662999999999999
0.1915,0.022000000000000002,-5.653
0.192,0.022000000000000002,-5.624
0.1925,0.017,-5.614
0.193,0.017,-5.6
0.1935,0.022000000000000002,-5.575
0.194,0.017,-5.556
0.1945,0.022000000000000002,-5.546
0.195,0.022000000000000002,-5.521
0.1955,0.022000000000000002,-5.507000000000001
0.196,0.017,-5.492000000000001
0.1965,0.022000000000000002,-5.473
0.197,0.022000000000000002,-5.4479999999999995
0.1975,0.017,-5.438
0.198,0.017,-5.4239999999999995
0.1985,0.022000000000000002,-5.399
0.199,0.017,-5.38
0.1995,0.022000000000000002,-5.36
0.2,0.022000000000000002,-5.341
0.2005,0.017,-5.321000000000001
0.201,0.022000000000000002,-5.306
0.2015,0.027000000000000003,-5.282
0.202,0.022000000000000002,-5.267
0.2025,0.027000000000000003,-5.252999999999999
0.203,0.027000000000000003,-5.228
0.2035,0.022000000000000002,-5.2139999999999995
0.204,0.022000000000000002,-5.199
0.2045,0.027000000000000003,-5.175
0.205,0.017,-5.155
0.2055,0.022000000000000002,-5.145
0.206,0.022000000000000002,-5.1160000000000005
0.2065,0.022000000000000002,-5.101
0.207,0.012,-5.082
0.2075,0.022000000000000002,-5.062
0.208,0.022000000000000002,-5.038
0.2085,0.022000000000000002,-5.023
0.209,0.022000000000000002,-5.004
0.2095,0.027000000000000003,-4.984
0.21,0.022000000000000002,-4.965
0.2105,0.027000000000000003,-4.945
0.211,0.027000000000000003,-4.926
0.2115,0.022000000000000002,-4.906000000000001
0.212,0.027000000000000003,-4.891
0.2125,0.032,-4.867
0.213,0.022000000000000002,-4.8469999999999995
0.2135,0.022000000000000002,-4.833
0.214,0.027000000000000003,-4.808
0.2145,0.022000000000000002,-4.789
0.215,0.022000000000000002,-4.774
0.2155,0.027000000000000003,-4.75
0.216,0.022000000000000002,-4.73
0.2165,0.022000000000000002,-4.716
0.217,0.027000000000000003,-4.691
0.2175,0.022000000000000002,-4.667
0.218,0.017,-4.652
0.2185,0.027000000000000003,-4.628
0.219,0.022000000000000002,-4.6080000000000005
0.2195,0.022000000000000002,-4.5889999999999995
0.22,0.027000000000000003,-4.564
0.2205,0.032,-4.545
0.221,0.022000000000000002,-4.53
0.2215,0.032,-4.51
0.222,0.027000000000000003,-4.481
0.2225,0.022000000000000002,-4.466
0.223,0.027000000000000003,-4.442
0.2235,0.032,-4.422
0.224,0.022000000000000002,-4.4030000000000005
0.2245,0.027000000000000003,-4.388
0.225,0.027000000000000003,-4.359
0.2255,0.022000000000000002,-4.3389999999999995
0.226,0.027000000000000003,-4.32
0.2265,0.027000000000000003,-4.3
0.227,0.027000000000000003,-4.276
0.2275,0.022000000000000002,-4.256
0.228,0.027000000000000003,-4.237
0.2285,0.027000000000000003,-4.208
0.229,0.022000000000000002,-4.198
0.2295,0.027000000000000003,-4.168
0.23,0.027000000000000003,-4.144
0.2305,0.027000000000000003,-4.129
0.231,0.027000000000000003,-4.105
0.2315,0.032,-4.081
0.232,0.027000000000000003,-4.061
0.2325,0.027000000000000003,-4.042
0.233,0.032,-4.022
0.2335,0.022000000000000002,-4.002
0.234,0.027000000000000003,-3.988
0.2345,0.032,-3.958
0.235,0.022000000000000002,-3.9339999999999997
0.2355,0.027000000000000003,-3.924
0.236,0.027000000000000003,-3.895
0.2365,0.027000000000000003,-3.8710000000000004
0.237,0.022000000000000002,-3.8510000000000004
0.2375,0.027000000000000003,-3.827
0.238,0.027000000000000003,-3.802
0.2385,0.022000000000000002,-3.7880000000000003
0.239,0.032,-3.758
0.2395,0.032,-3.734
0.24,0.027000000000000003,-3.714
0.2405,0.032,-3.69
0.241,0.032,-3.67
0.2415,0.032,-3.6460000000000004
0.242,0.032,-3.6260000000000003
0.2425,0.037000000000000005,-3.602
0.243,0.032,-3.5780000000000003
0.2435,0.032,-3.563
0.244,0.037000000000000005,-3.5380000000000003
0.2445,0.027000000000000003,-3.514
0.245,0.032,-3.495
0.2455,0.032,-3.475
0.246,0.027000000000000003,-3.446
0.2465,0.027000000000000003,-3.426
0.247,0.032,-3.407
0.2475,0.032,-3.377
0.248,0.027000000000000003,-3.358
0.2485,0.032,-3.338
0.249,0.032,-3.3089999999999997
0.2495,0.027000000000000003,-3.2889999999999997
0.25,0.032,-3.265
0.2505,0.037000000000000005,-3.241
0.251,0.027000000000000003,-3.221
0.2515,0.032,-3.1919999999999997
0.252,0.037000000000000005,-3.1719999999999997
0.2525,0.032,-3.153
0.253,0.032,-3.133
0.2535,0.032,-3.1039999999999996
0.254,0.032,-3.0789999999999997
0.2545,0.027000000000000003,-3.065
0.255,0.032,-3.035
0.2555,0.027000000000000003,-3.016
0.256,0.032,-2.9960000000000004
0.2565,0.037000000000000005,-2.967
0.257,0.032,-2.938
0.2575,0.022000000000000002,-2.923
0.258,0.032,-2.8989999999999996
0.2585,0.032,-2.8689999999999998
0.259,0.027000000000000003,-2.85
0.2595,0.032,-2.825
0.26,0.037000000000000005,-2.7960000000000003
0.2605,0.032,-2.781
0.261,0.037000000000000005,-2.7569999999999997
0.2615,0.037000000000000005,-2.733
0.262,0.032,-2.713
0.2625,0.037000000000000005,-2.6889999999999996
0.263,0.037000000000000005,-2.659
0.2635,0.032,-2.64
0.264,0.032,-2.62
0.2645,0.037000000000000005,-2.591
0.265,0.032,-2.571
0.2655,0.032,-2.552
0.266,0.037000000000000005,-2.523
0.2665,0.027000000000000003,-2.503
0.267,0.032,-2.479
0.2675,0.032,-2.454
0.268,0.032,-2.425
0.2685,0.032,-2.4
0.269,0.032,-2.381
0.2695,0.037000000000000005,-2.352
0.27,0.032,-2.332
0.2705,0.037000000000000005,-2.3080000000000003
0.271,0.037000000000000005,-2.283
0.2715,0.032,-2.2640000000000002
0.272,0.037000000000000005,-2.234
0.2725,0.037000000000000005,-2.215
0.273,0.032,-2.186
0.2735,0.037000000000000005,-2.171
0.274,0.037000000000000005,-2.142
0.2745,0.037000000000000005,-2.117
0.275,0.032,-2.103
0.2755,0.037000000000000005,-2.073
0.276,0.032,-2.044
0.2765,0.032,-2.029
0.277,0.037000000000000005,-2.0
0.2775,0.037000000000000005,-1.9709999999999999
0.278,0.032,-1.9509999999999998
0.2785,0.037000000000000005,-1.9269999999999998
0.279,0.032,-1.8969999999999998
0.2795,0.032,-1.8780000000000001
0.28,0.037000000000000005,-1.8530000000000002
0.2805,0.042,-1.829
0.281,0.032,-1.805
0.2815,0.037000000000000005,-1.785
0.282,0.037000000000000005,-1.751
0.2825,0.032,-1.7309999999999999
0.283,0.032,-1.712
0.2835,0.032,-1.683
0.284,0.037000000000000005,-1.6580000000000001
0.2845,0.032,-1.639
0.285,0.037000000000000005,-1.614
0.2855,0.032,-1.58
0.286,0.032,-1.57
0.2865,0.037000000000000005,-1.536
0.287,0.032,-1.5119999999999998
0.2875,0.032,-1.492
0.288,0.037000000000000005,-1.4680000000000002
0.2885,0.037000000000000005,-1.4380000000000002
0.289,0.032,-1.419
0.2895,0.037000000000000005,-1.3940000000000001
0.29,0.037000000000000005,-1.365
0.2905,0.032,-1.341
0.291,0.037000000000000005,-1.321
0.2915,0.042,-1.2919999999999998
0.292,0.037000000000000005,-1.2670000000000001
0.2925,0.042,-1.253
0.293,0.037000000000000005,-1.219
0.2935,0.032,-1.189
0.294,0.037000000000000005,-1.175
0.2945,0.042,-1.145
0.295,0.032,-1.121
0.2955,0.027000000000000003,-1.101
0.296,0.032,-1.077
0.2965,0.032,-1.048
0.297,0.032,-1.028
0.2975,0.037000000000000005,-0.9990000000000001
0.298,0.042,-0.9740000000000001
0.2985,0.032,-0.95
0.299,0.032,-0.9259999999999999
0.2995,0.037000000000000005,-0.8959999999999999
0.3,0.037000000000000005,-0.877
0.3005,0.037000000000000005,-0.857
0.301,0.042,-0.823
0.3015,0.037000000000000005,-0.8029999999999999
0.302,0.037000000000000005,-0.779
0.3025,0.037000000000000005,-0.755
0.303,0.037000000000000005,-0.73
0.3035,0.032,-0.706
0.304,0.037000000000000005,-0.6809999999999999
0.3045,0.037000000000000005,-0.657
0.305,0.032,-0.637
0.3055,0.037000000000000005,-0.608
0.306,0.037000000000000005,-0.579
0.3065,0.032,-0.5589999999999999
0.307,0.037000000000000005,-0.535
0.3075,0.037000000000000005,-0.505
0.308,0.032,-0.486
0.3085,0.037000000000000005,-0.462
0.309,0.042,-0.43200000000000005
0.3095,0.032,-0.408
0.31,0.037000000000000005,-0.39299999999999996
0.3105,0.037000000000000005,-0.359
0.311,0.037000000000000005,-0.33899999999999997
0.3115,0.037000000000000005,-0.315
0.312,0.037000000000000005,-0.28600000000000003
0.3125,0.032,-0.261
0.313,0.032,-0.242
0.3135,0.032,-0.212
0.314,0.037000000000000005,-0.183
0.3145,0.032,-0.16399999999999998
0.315,0.032,-0.14400000000000002
0.3155,0.042,-0.115
0.316,0.027000000000000003,-0.095
0.3165,0.037000000000000005,-0.071
0.317,0.042,-0.042
0.3175,0.032,-0.017
0.318,0.037000000000000005,-0.002
0.3185,0.042,0.032
0.319,0.037000000000000005,0.061
0.3195,0.032,0.076
0.32,0.042,0.105
0.3205,0.037000000000000005,0.129
0.321,0.037000000000000005,0.154
0.3215,0.042,0.17800000000000002
0.322,0.037000000000000005,0.20800000000000002
0.3225,0.032,0.22699999999999998
0.323,0.037000000000000005,0.252
0.3235,0.032,0.281
0.324,0.032,0.3
0.3245,0.037000000000000005,0.325
0.325,0.042,0.354
0.3255,0.037000000000000005,0.379
0.326,0.037000000000000005,0.39299999999999996
0.3265,0.037000000000000005,0.42700000000000005
0.327,0.037000000000000005,0.452
0.3275,0.037000000000000005,0.47100000000000003
0.328,0.042,0.501
0.3285,0.032,0.525
0.329,0.042,0.5489999999999999
0.3295,0.037000000000000005,0.574
0.33,0.037000000000000005,0.598
0.3305,0.027000000000000003,0.618
0.331,0.037000000000000005,0.647
0.3315,0.037000000000000005,0.6759999999999999
0.332,0.032,0.696
0.3325,0.037000000000000005,0.72
0.333,0.037000000000000005,0.75
0.3335,0.032,0.769
0.334,0.032,0.794
0.3345,0.042,0.818
0.335,0.032,0.8420000000000001
0.3355,0.032,0.862
0.336,0.042,0.8909999999999999
0.3365,0.032,0.9159999999999999
0.337,0.037000000000000005,0.93
0.3375,0.037000000000000005,0.96
0.338,0.037000000000000005,0.9840000000000001
0.3385,0.037000000000000005,1.0090000000000001
0.339,0.042,1.038
0.3395,0.042,1.062
0.34,0.032,1.082
0.3405,0.037000000000000005,1.111
0.341,0.037000000000000005,1.14
0.3415,0.032,1.16
0.342,0.037000000000000005,1.1840000000000002
0.3425,0.042,1.214
0.343,0.032,1.238
0.3435,0.037000000000000005,1.253
0.344,0.037000000000000005,1.2819999999999998
0.3445,0.032,1.311
0.345,0.037000000000000005,1.331
0.3455,0.042,1.355
0.346,0.032,1.375
0.3465,0.032,1.3940000000000001
0.347,0.037000000000000005,1.429
0.3475,0.032,1.453
0.348,0.032,1.4680000000000002
0.3485,0.037000000000000005,1.4969999999999999
0.349,0.037000000000000005,1.531
0.3495,0.032,1.546
0.35,0.037000000000000005,1.57
0.3505,0.042,1.6
0.351,0.032,1.619
0.3515,0.037000000000000005,1.643
0.352,0.042,1.6680000000000001
0.3525,0.032,1.6869999999999998
0.353,0.037000000000000005,1.712
0.3535,0.037000000000000005,1.7409999999999999
0.354,0.037000000000000005,1.766
0.3545,0.037000000000000005,1.785
0.355,0.037000000000000005,1.81
0.3555,0.032,1.829
0.356,0.032,1.8530000000000002
0.3565,0.037000000000000005,1.8780000000000001
0.357,0.037000000000000005,1.9069999999999998
0.3575,0.032,1.9269999999999998
0.358,0.032,1.956
0.3585,0.037000000000000005,1.98
0.359,0.032,2.005
0.3595,0.037000000000000005,2.024
0.36,0.042,2.0540000000000003
0.3605,0.037000000000000005,2.073
0.361,0.037000000000000005,2.0980000000000003
0.3615,0.042,2.122
0.362,0.032,2.142
0.3625,0.037000000000000005,2.166
0.363,0.037000000000000005,2.195
0.3635,0.037000000000000005,2.22
0.364,0.032,2.234
0.3645,0.037000000000000005,2.2640000000000002
0.365,0.032,2.293
0.3655,0.032,2.303
0.366,0.032,2.332
0.3665,0.042,2.3609999999999998
0.367,0.027000000000000003,2.376
0.3675,0.037000000000000005,2.405
0.368,0.037000000000000005,2.43
0.3685,0.032,2.444
0.369,0.032,2.474
0.3695,0.042,2.503
0.37,0.027000000000000003,2.523
0.3705,0.037000000000000005,2.542
0.371,0.042,2.571
0.3715,0.037000000000000005,2.596
0.372,0.037000000000000005,2.611
0.3725,0.037000000000000005,2.635
0.373,0.037000000000000005,2.6639999999999997
0.3735,0.032,2.679
0.374,0.032,2.7030000000000003
0.3745,0.032,2.733
0.375,0.027000000000000003,2.747
0.3755,0.032,2.7769999999999997
0.376,0.032,2.801
0.3765,0.027000000000000003,2.8160000000000003
0.377,0.032,2.845
0.3775,0.037000000000000005,2.864
0.378,0.032,2.884
0.3785,0.037000000000000005,2.9130000000000003
0.379,0.037000000000000005,2.938
0.3795,0.032,2.957
0.38,0.037000000000000005,2.977
0.3805,0.042,3.0060000000000002
0.381,0.032,3.031
0.3815,0.032,3.045
0.382,0.037000000000000005,3.074
0.3825,0.032,3.0989999999999998
0.383,0.032,3.114
0.3835,0.037000000000000005,3.138
0.384,0.032,3.167
0.3845,0.027000000000000003,3.182
0.385,0.037000000000000005,3.2060000000000004
0.3855,0.032,3.236
0.386,0.027000000000000003,3.25
0.3865,0.032,3.27
0.387,0.037000000000000005,3.299
0.3875,0.027000000000000003,3.319
0.388,0.032,3.333
0.3885,0.037000000000000005,3.363
0.389,0.032,3.392
0.3895,0.032,3.407
0.39,0.037000000000000005,3.431
0.3905,0.032,3.455
0.391,0.037000000000000005,3.47
0.3915,0.037000000000000005,3.4989999999999997
0.392,0.032,3.5239999999999996
0.3925,0.027000000000000003,3.543
0.393,0.032,3.563
0.3935,0.027000000000000003,3.5869999999999997
0.394,0.032,3.6069999999999998
0.3945,0.032,3.6260000000000003
0.395,0.032,3.6510000000000002
0.3955,0.027000000000000003,3.67
0.396,0.032,3.695
0.3965,0.037000000000000005,3.714
0.397,0.032,3.739
0.3975,0.032,3.753
0.398,0.032,3.783
0.3985,0.027000000000000003,3.802
0.399,0.032,3.8169999999999997
0.3995,0.037000000000000005,3.8510000000000004
0.4,0.032,3.875
0.4005,0.027000000000000003,3.885
0.401,0.032,3.91
0.4015,0.032,3.9339999999999997
0.402,0.027000000000000003,3.949
0.4025,0.032,3.9730000000000003
0.403,0.032,4.002
0.4035,0.027000000000000003,4.0169999999999995
0.404,0.032,4.037
0.4045,0.032,4.066
0.405,0.022000000000000002,4.081
0.4055,0.032,4.1
0.406,0.027000000000000003,4.12
0.4065,0.027000000000000003,4.138999999999999
0.407,0.027000000000000003,4.164
0.4075,0.032,4.183
0.408,0.027000000000000003,4.208
0.4085,0.032,4.2219999999999995
0.409,0.032,4.252
0.4095,0.032,4.271
0.41,0.027000000000000003,4.281000000000001
0.4105,0.032,4.31
0.411,0.027000000000000003,4.335
0.4115,0.027000000000000003,4.354
0.412,0.032,4.374
0.4125,0.027000000000000003,4.393
0.413,0.027000000000000003,4.408
0.4135,0.027000000000000003,4.4319999999999995
0.414,0.027000000000000003,4.457
0.4145,0.027000000000000003,4.471
0.415,0.027000000000000003,4.4910000000000005
0.4155,0.032,4.515
0.416,0.027000000000000003,4.535
0.4165,0.022000000000000002,4.5489999999999995
0.417,0.032,4.569
0.4175,0.022000000000000002,4.5889999999999995
0.418,0.027000000000000003,4.6080000000000005
0.4185,0.027000000000000003,4.632
0.419,0.022000000000000002,4.652
0.4195,0.027000000000000003,4.672
0.42,0.032,4.691
0.4205,0.027000000000000003,4.72
0.421,0.022000000000000002,4.73
0.4215,0.027000000000000003,4.75
0.422,0.027000000000000003,4.774
0.4225,0.022000000000000002,4.789
0.423,0.027000000000000003,4.808
0.4235,0.022000000000000002,4.828
0.424,0.022000000000000002,4.8469999999999995
0.4245,0.027000000000000003,4.867
0.425,0.032,4.886
0.4255,0.022000000000000002,4.901
0.426,0.022000000000000002,4.916
0.4265,0.032,4.945
0.427,0.027000000000000003,4.965
0.4275,0.027000000000000003,4.974
0.428,0.027000000000000003,4.999
0.4285,0.022000000000000002,5.023
0.429,0.022000000000000002,5.038
0.4295,0.027000000000000003,5.0569999999999995
0.43,0.027000000000000003,5.082
0.4305,0.022000000000000002,5.092
0.431,0.027000000000000003,5.1160000000000005
0.4315,0.027000000000000003,5.136
0.432,0.022000000000000002,5.15
0.4325,0.022000000000000002,5.165
0.433,0.032,5.189
0.4335,0.022000000000000002,5.204
0.434,0.027000000000000003,5.218999999999999
0.4345,0.027000000000000003,5.242999999999999
0.435,0.022000000000000002,5.263
0.4355,0.022000000000000002,5.272
0.436,0.027000000000000003,5.297000000000001
0.4365,0.022000000000000002,5.316
0.437,0.022000000000000002,5.3260000000000005
0.4375,0.022000000000000002,5.346
0.438,0.022000000000000002,5.37
0.4385,0.022000000000000002,5.388999999999999
0.439,0.022000000000000002,5.404
0.4395,0.027000000000000003,5.428999999999999
0.44,0.022000000000000002,5.438
0.4405,0.022000000000000002,5.457999999999999
0.441,0.027000000000000003,5.477
0.4415,0.022000000000000002,5.492000000000001
0.442,0.027000000000000003,5.502000000000001
0.4425,0.027000000000000003,5.526
0.443,0.022000000000000002,5.551
0.4435,0.022000000000000002,5.556
0.444,0.027000000000000003,5.58
0.4445,0.022000000000000002,5.604
0.445,0.022000000000000002,5.609
0.4455,0.022000000000000002,5.629
0.446,0.022000000000000002,5.648
0.4465,0.022000000000000002,5.6579999999999995
0.447,0.022000000000000002,5.683
0.4475,0.022000000000000002,5.702000000000001
0.448,0.017,5.7170000000000005
0.4485,0.022000000000000002,5.736000000000001
0.449,0.027000000000000003,5.756
0.4495,0.017,5.77
0.45,0.022000000000000002,5.785
0.4505,0.027000000000000003,5.805
0.451,0.017,5.819
0.4515,0.022000000000000002,5.8389999999999995
0.452,0.027000000000000003,5.853
0.4525,0.017,5.8629999999999995
0.453,0.022000000000000002,5.882999999999999
0.4535,0.027000000000000003,5.902
0.454,0.022000000000000002,5.917000000000001
0.4545,0.022000000000000002,5.9270000000000005
0.455,0.022000000000000002,5.946000000000001
0.4555,0.022000000000000002,5.971
0.456,0.017,5.976
0.4565,0.017,5.99
0.457,0.017,6.015
0.4575,0.017,6.024
0.458,0.022000000000000002,6.0489999999999995
0.4585,0.017,6.063
0.459,0.012,6.0729999999999995
0.4595,0.022000000000000002,6.093
0.46,0.022000000000000002,6.112
0.4605,0.017,6.122000000000001
0.461,0.022000000000000002,6.132000000000001
0.4615,0.027000000000000003,6.156000000000001
0.462,0.017,6.171
0.4625,0.017,6.186
0.463,0.022000000000000002,6.2
0.4635,0.017,6.215
0.464,0.022000000000000002,6.225
0.4645,0.017,6.244
0.465,0.017,6.2589999999999995
0.4655,0.012,6.274
0.466,0.022000000000000002,6.287999999999999
0.4665,0.012,6.303
0.467,0.012,6.317
0.4675,0.022000000000000002,6.337000000000001
0.468,0.017,6.352
0.4685,0.012,6.361000000000001
0.469,0.017,6.371
0.4695,0.022000000000000002,6.396
0.47,0.017,6.41
0.4705,0.022000000000000002,6.42
0.471,0.022000000000000002,6.435
0.4715,0.017,6.454
0.472,0.022000000000000002,6.4639999999999995
0.4725,0.017,6.479
0.473,0.017,6.492999999999999
0.4735,0.012,6.497999999999999
0.474,0.022000000000000002,6.518
0.4745,0.012,6.532
0.475,0.012,6.537000000000001
0.4755,0.017,6.557
0.476,0.017,6.5760000000000005
0.4765,0.006999999999999999,6.586
0.477,0.017,6.596
0.4775,0.017,6.615
0.478,0.012,6.625
0.4785,0.012,6.64
0.479,0.017,6.654
0.4795,0.012,6.664
0.48,0.017,6.684
0.4805,0.017,6.694
0.481,0.012,6.702999999999999
0.4815,0.012,6.712999999999999
0.482,0.022000000000000002,6.733
0.4825,0.012,6.742000000000001
0.483,0.012,6.757000000000001
0.4835,0.012,6.772
0.484,0.012,6.781000000000001
0.4845,0.012,6.791
0.485,0.012,6.811
0.4855,0.012,6.816
0.486,0.002,6.825
0.4865,0.012,6.845
0.487,0.012,6.86
0.4875,0.006999999999999999,6.864
0.488,0.012,6.879
0.4885,0.017,6.899
0.489,0.012,6.904
0.4895,0.017,6.9079999999999995
0.49,0.017,6.933
0.4905,0.006999999999999999,6.938
0.491,0.006999999999999999,6.947
0.4915,0.017,6.9670000000000005
0.492,0.012,6.972
0.4925,0.012,6.982
0.493,0.012,6.996
0.4935,0.006999999999999999,7.006
0.494,0.006999999999999999,7.016
0.4945,0.012,7.026
0.495,0.006999999999999999,7.035
0.4955,0.006999999999999999,7.045
0.496,0.006999999999999999,7.06
0.4965,0.006999999999999999,7.074
0.497,0.002,7.079
0.4975,0.006999999999999999,7.084
0.498,0.012,7.104
0.4985,0.006999999999999999,7.114
0.499,0.012,7.122999999999999
0.4995,0.012,7.138
0.5,0.006999999999999999,7.143
0.5005,0.006999999999999999,7.153
0.501,0.012,7.167000000000001
0.5015,0.006999999999999999,7.1770000000000005
0.502,0.012,7.1770000000000005
0.5025,0.012,7.197
0.503,0.006999999999999999,7.211
0.5035,-0.002,7.211
0.504,0.006999999999999999,7.226
0.5045,0.006999999999999999,7.236000000000001
0.505,0.002,7.2410000000000005
0.5055,0.006999999999999999,7.25
0.506,0.006999999999999999,7.26
0.5065,0.002,7.265
0.507,0.006999999999999999,7.28
0.5075,0.006999999999999999,7.289
0.508,0.002,7.2989999999999995
0.5085,0.006999999999999999,7.303999999999999
0.509,0.006999999999999999,7.319
0.5095,0.002,7.324
0.51,0.002,7.332999999999999
0.5105,0.012,7.348
0.511,0.006999999999999999,7.358
0.5115,0.006999999999999999,7.3629999999999995
0.512,0.012,7.372000000000001
0.5125,0.002,7.382000000000001
0.513,0.006999999999999999,7.382000000000001
0.5135,0.006999999999999999,7.397
0.514,0.006999999999999999,7.407
0.5145,0.002,7.4110000000000005
0.515,0.002,7.416
0.5155,0.002,7.431
0.516,-0.002,7.431
0.5165,0.002,7.446000000000001
0.517,0.006999999999999999,7.455
0.5175,-0.002,7.455
0.518,0.002,7.465
0.5185,0.006999999999999999,7.48
0.519,0.002,7.485
0.5195,0.002,7.485
0.52,0.006999999999999999,7.499
0.5205,0.002,7.5089999999999995
0.521,0.002,7.513999999999999
0.5215,0.006999999999999999,7.524
0.522,0.002,7.534
0.5225,-0.006999999999999999,7.534
0.523,0.006999999999999999,7.542999999999999
0.5235,0.002,7.553
0.524,-0.002,7.553
0.5245,0.002,7.563
0.525,0.002,7.5729999999999995
0.5255,-0.002,7.5729999999999995
0.526,-0.002,7.582000000000001
0.5265,-0.002,7.5920000000000005
0.527,-0.002,7.5920000000000005
0.5275,0.002,7.607
0.528,0.006999999999999999,7.612
0.5285,-0.002,7.617000000000001
0.529,0.002,7.626
0.5295,-0.002,7.631
0.53,-0.002,7.636
0.5305,-0.002,7.636
0.531,0.002,7.651
0.5315,-0.002,7.656000000000001
0.532,0.002,7.6610000000000005
0.5325,-0.002,7.67
0.533,-0.002,7.675
0.5335,-0.012,7.67
0.534,-0.002,7.68
0.5345,-0.002,7.69
0.535,-0.006999999999999999,7.685
0.5355,-0.002,7.695
0.536,-0.002,7.705
0.5365,-0.012,7.709
0.537,-0.002,7.709
0.5375,0.002,7.718999999999999
0.538,-0.002,7.724
0.5385,-0.002,7.724
0.539,0.002,7.739
0.5395,-0.002,7.739
0.54,-0.002,7.739
0.5405,0.002,7.752999999999999
0.541,-0.002,7.757999999999999
0.5415,-0.006999999999999999,7.757999999999999
0.542,-0.002,7.763
0.5425,-0.002,7.768
0.543,-0.006999999999999999,7.773
0.5435,-0.002,7.768
0.544,-0.002,7.778
0.5445,-0.006999999999999999,7.778
0.545,-0.002,7.7829999999999995
0.5455,-0.002,7.792000000000001
0.546,-0.012,7.787999999999999
0.5465,-0.002,7.792000000000001
0.547,-0.002,7.807
0.5475,-0.006999999999999999,7.807
0.548,-0.006999999999999999,7.807
0.5485,-0.002,7.812
0.549,-0.006999999999999999,7.822
0.5495,-0.002,7.822
0.55,-0.002,7.827000000000001
0.5505,-0.006999999999999999,7.832000000000001
0.551,-0.006999999999999999,7.827000000000001
0.5515,-0.002,7.836
0.552,-0.006999999999999999,7.841
0.5525,-0.006999999999999999,7.836
0.553,-0.006999999999999999,7.841
0.5535,-0.002,7.846
0.554,-0.006999999999999999,7.846
0.5545,-0.006999999999999999,7.846
0.555,-0.006999999999999999,7.856
0.5555,-0.006999999999999999,7.856
0.556,-0.006999999999999999,7.856
0.5565,-0.006999999999999999,7.861000000000001
0.557,-0.012,7.861000000000001
0.5575,-0.006999999999999999,7.8660000000000005
0.558,-0.006999999999999999,7.8660000000000005
0.5585,-0.012,7.8660000000000005
0.559,-0.006999999999999999,7.8660000000000005
0.5595,-0.002,7.875
0.56,-0.006999999999999999,7.88
0.5605,-0.006999999999999999,7.88
0.561,-0.002,7.885
0.5615,-0.002,7.89
0.562,-0.012,7.885
0.5625,-0.002,7.885
0.563,-0.002,7.895
0.5635,-0.017,7.89
0.564,-0.006999999999999999,7.89
0.5645,-0.012,7.9
0.565,-0.012,7.895
0.5655,-0.006999999999999999,7.89
0.566,-0.006999999999999999,7.9
0.5665,-0.012,7.9
0.567,-0.012,7.9
0.5675,-0.006999999999999999,7.905
0.568,-0.012,7.9
0.5685,-0.006999999999999999,7.895
0.569,-0.012,7.9
0.5695,-0.012,7.905
0.57,-0.012,7.895
0.5705,-0.012,7.905
0.571,-0.012,7.9
0.5715,-0.017,7.895
0.572,-0.012,7.895
0.5725,-0.017,7.89
0.573,-0.017,7.89
0.5735,-0.017,7.89
0.574,-0.017,7.89
0.5745,-0.012,7.88
0.575,-0.017,7.88
0.5755,-0.017,7.88
0.576,-0.022000000000000002,7.875
0.5765,-0.017,7.875
0.577,-0.012,7.871
0.5775,-0.017,7.875
0.578,-0.017,7.871
0.5785,-0.012,7.8660000000000005
0.579,-0.017,7.8660000000000005
0.5795,-0.012,7.861000000000001
0.58,-0.012,7.8660000000000005
0.5805,-0.017,7.861000000000001
0.581,-0.017,7.851
0.5815,-0.017,7.856
0.582,-0.017,7.856
0.5825,-0.022000000000000002,7.846
0.583,-0.012,7.846
0.5835,-0.017,7.846
0.584,-0.017,7.836
0.5845,-0.017,7.836
0.585,-0.017,7.832000000000001
0.5855,-0.017,7.827000000000001
0.586,-0.022000000000000002,7.827000000000001
0.5865,-0.017,7.827000000000001
0.587,-0.022000000000000002,7.822
0.5875,-0.017,7.807
0.588,-0.017,7.812
0.5885,-0.022000000000000002,7.812
0.589,-0.017,7.807
0.5895,-0.017,7.8020000000000005
0.59,-0.017,7.807
0.5905,-0.012,7.792000000000001
0.591,-0.017,7.792000000000001
0.5915,-0.017,7.792000000000001
0.592,-0.022000000000000002,7.7829999999999995
0.5925,-0.022000000000000002,7.7829999999999995
0.593,-0.017,7.7829999999999995
0.5935,-0.027000000000000003,7.768
0.594,-0.017,7.768
0.5945,-0.022000000000000002,7.768
0.595,-0.027000000000000003,7.757999999999999
0.5955,-0.022000000000000002,7.752999999999999
0.596,-0.022000000000000002,7.752999999999999
0.5965,-0.027000000000000003,7.744
0.597,-0.022000000000000002,7.734
0.5975,-0.012,7.739
0.598,-0.027000000000000003,7.734
0.5985,-0.022000000000000002,7.724
0.599,-0.017,7.724
0.5995,-0.017,7.718999999999999
0.6,-0.017,7.709
0.6005,-0.017,7.7139999999999995
0.601,-0.022000000000000002,7.705
0.6015,-0.022000000000000002,7.695
0.602,-0.022000000000000002,7.695
0.6025,-0.027000000000000003,7.69
0.603,-0.022000000000000002,7.68
0.6035,-0.022000000000000002,7.675
0.604,-0.022000000000000002,7.675
0.6045,-0.032,7.6610000000000005
0.605,-0.022000000000000002,7.6610000000000005
0.6055,-0.022000000000000002,7.6610000000000005
0.606,-0.032,7.641
0.6065,-0.022000000000000002,7.641
0.607,-0.027000000000000003,7.636
0.6075,-0.027000000000000003,7.626
0.608,-0.022000000000000002,7.621
0.6085,-0.022000000000000002,7.621
0.609,-0.027000000000000003,7.617000000000001
0.6095,-0.027000000000000003,7.602
0.61,-0.017,7.602
0.6105,-0.027000000000000003,7.5920000000000005
0.611,-0.022000000000000002,7.587000000000001
0.6115,-0.017,7.582000000000001
0.612,-0.027000000000000003,7.5729999999999995
0.6125,-0.027000000000000003,7.563
0.613,-0.022000000000000002,7.563
0.6135,-0.027000000000000003,7.553
0.614,-0.022000000000000002,7.537999999999999
0.6145,-0.027000000000000003,7.534
0.615,-0.027000000000000003,7.534
0.6155,-0.027000000000000003,7.519
0.616,-0.027000000000000003,7.513999999999999
0.6165,-0.032,7.5089999999999995
0.617,-0.032,7.495
0.6175,-0.022000000000000002,7.495
0.618,-0.027000000000000003,7.495
0.6185,-0.032,7.48
0.619,-0.022000000000000002,7.47
0.6195,-0.027000000000000003,7.475
0.62,-0.032,7.46
0.6205,-0.027000000000000003,7.446000000000001
0.621,-0.027000000000000003,7.446000000000001
0.6215,-0.027000000000000003,7.436
0.622,-0.027000000000000003,7.431
0.6225,-0.022000000000000002,7.421
0.623,-0.032,7.4110000000000005
0.6235,-0.022000000000000002,7.402
0.624,-0.022000000000000002,7.397
0.6245,-0.027000000000000003,7.3870000000000005
0.625,-0.027000000000000003,7.377000000000001
0.6255,-0.027000000000000003,7.367999999999999
0.626,-0.027000000000000003,7.3629999999999995
0.6265,-0.027000000000000003,7.348
0.627,-0.027000000000000003,7.337999999999999
0.6275,-0.027000000000000003,7.337999999999999
0.628,-0.032,7.324
0.6285,-0.027000000000000003,7.324
0.629,-0.027000000000000003,7.309
0.6295,-0.037000000000000005,7.294
0.63,-0.027000000000000003,7.294
0.6305,-0.032,7.289
0.631,-0.037000000000000005,7.27
0.6315,-0.032,7.265
0.632,-0.032,7.26
0.6325,-0.032,7.245
0.633,-0.027000000000000003,7.2410000000000005
0.6335,-0.027000000000000003,7.231
0.634,-0.032,7.216
0.6345,-0.027000000000000003,7.206
0.635,-0.032,7.2010000000000005
0.6355,-0.032,7.187
0.636,-0.037000000000000005,7.172000000000001
0.6365,-0.032,7.167000000000001
0.637,-0.032,7.1579999999999995
0.6375,-0.032,7.148
0.638,-0.027000000000000003,7.138
0.6385,-0.032,7.132999999999999
0.639,-0.032,7.117999999999999
0.6395,-0.032,7.114
0.64,-0.032,7.104
0.6405,-0.032,7.084
0.641,-0.032,7.079
0.6415,-0.032,7.074
0.642,-0.037000000000000005,7.055
0.6425,-0.032,7.04
0.643,-0.032,7.04
0.6435,-0.037000000000000005,7.026
0.644,-0.032,7.016
0.6445,-0.037000000000000005,7.006
0.645,-0.037000000000000005,6.9910000000000005
0.6455,-0.032,6.982
0.646,-0.032,6.972
0.6465,-0.037000000000000005,6.957000000000001
0.647,-0.037000000000000005,6.947
0.6475,-0.027000000000000003,6.943
0.648,-0.037000000000000005,6.922999999999999
0.6485,-0.037000000000000005,6.9079999999999995
0.649,-0.027000000000000003,6.9079999999999995
0.6495,-0.032,6.894
0.65,-0.037000000000000005,6.879
0.6505,-0.032,6.869
0.651,-0.037000000000000005,6.86
0.6515,-0.032,6.845
0.652,-0.032,6.83
0.6525,-0.032,6.825
0.653,-0.037000000000000005,6.811
0.6535,-0.037000000000000005,6.796
0.654,-0.037000000000000005,6.791
0.6545,-0.042,6.767
0.655,-0.037000000000000005,6.7620000000000005
0.6555,-0.037000000000000005,6.752000000000001
0.656,-0.042,6.728
0.6565,-0.037000000000000005,6.723
0.657,-0.037000000000000005,6.712999999999999
0.6575,-0.042,6.6979999999999995
0.658,-0.032,6.689
0.6585,-0.037000000000000005,6.6739999999999995
0.659,-0.042,6.659
0.6595,-0.037000000000000005,6.65
0.66,-0.037000000000000005,6.64
0.6605,-0.037000000000000005,6.625
0.661,-0.037000000000000005,6.606
0.6615,-0.032,6.606
0.662,-0.042,6.591
0.6625,-0.042,6.567
0.663,-0.037000000000000005,6.562
0.6635,-0.037000000000000005,6.542000000000001
0.664,-0.042,6.527
0.6645,-0.037000000000000005,6.518
0.665,-0.046,6.507999999999999
0.6655,-0.042,6.484
0.666,-0.042,6.474
0.6665,-0.042,6.468999999999999
0.667,-0.046,6.449
0.6675,-0.037000000000000005,6.43
0.668,-0.042,6.43
0.6685,-0.042,6.41
0.669,-0.037000000000000005,6.391
0.6695,-0.037000000000000005,6.381
0.67,-0.046,6.3660000000000005
0.6705,-0.037000000000000005,6.352
0.671,-0.037000000000000005,6.3420000000000005
0.6715,-0.046,6.327000000000001
0.672,-0.037000000000000005,6.308
0.6725,-0.037000000000000005,6.292999999999999
0.673,-0.042,6.278
0.6735,-0.042,6.263999999999999
0.674,-0.037000000000000005,6.249
0.6745,-0.042,6.234
0.675,-0.042,6.22
0.6755,-0.037000000000000005,6.21
0.676,-0.042,6.19
0.6765,-0.042,6.171
0.677,-0.042,6.156000000000001
0.6775,-0.042,6.147
0.678,-0.042,6.127000000000001
0.6785,-0.042,6.112
0.679,-0.046,6.103
0.6795,-0.051,6.082999999999999
0.68,-0.042,6.068
0.6805,-0.042,6.059
0.681,-0.046,6.039
0.6815,-0.042,6.024
0.682,-0.042,6.015
0.6825,-0.046,5.99
0.683,-0.042,5.976
0.6835,-0.042,5.966
0.684,-0.046,5.941
0.6845,-0.046,5.932
0.685,-0.037000000000000005,5.917000000000001
0.6855,-0.046,5.897
0.686,-0.046,5.882999999999999
0.6865,-0.042,5.867999999999999
0.687,-0.046,5.849
0.6875,-0.046,5.829
0.688,-0.037000000000000005,5.819
0.6885,-0.042,5.805
0.689,-0.046,5.785
0.6895,-0.042,5.77
0.69,-0.046,5.756
0.6905,-0.046,5.736000000000001
0.691,-0.042,5.726
0.6915,-0.046,5.707000000000001
0.692,-0.046,5.683
0.6925,-0.046,5.672999999999999
0.693,-0.046,5.6579999999999995
0.6935,-0.051,5.6339999999999995
0.694,-0.042,5.619
0.6945,-0.046,5.609
0.695,-0.051,5.585
0.6955,-0.046,5.57
0.696,-0.046,5.551
0.6965,-0.051,5.531000000000001
0.697,-0.046,5.5120000000000005
0.6975,-0.046,5.502000000000001
0.698,-0.046,5.477
0.6985,-0.042,5.468
0.699,-0.046,5.452999999999999
0.6995,-0.046,5.433
0.7,-0.046,5.414
0.7005,-0.042,5.404
0.701,-0.046,5.385
0.7015,-0.046,5.355
0.702,-0.042,5.35
0.7025,-0.046,5.331
0.703,-0.046,5.306
0.7035,-0.046,5.292000000000001
0.704,-0.051,5.282
0.7045,-0.055999999999999994,5.257999999999999
0.705,-0.051,5.2379999999999995
0.7055,-0.046,5.223
0.706,-0.051,5.199
0.7065,-0.046,5.184
0.707,-0.046,5.17
0.7075,-0.051,5.145
0.708,-0.051,5.126
0.7085,-0.042,5.1160000000000005
0.709,-0.051,5.096
0.7095,-0.046,5.077
0.71,-0.046,5.0569999999999995
0.7105,-0.046,5.043
0.711,-0.046,5.018
0.7115,-0.046,5.0089999999999995
0.712,-0.051,4.989
0.7125,-0.051,4.965
0.713,-0.046,4.95
0.7135,-0.051,4.93
0.714,-0.051,4.906000000000001
0.7145,-0.051,4.891
0.715,-0.046,4.877
0.7155,-0.055999999999999994,4.852
0.716,-0.051,4.838
0.7165,-0.051,4.8180000000000005
0.717,-0.051,4.7989999999999995
0.7175,-0.046,4.779
0.718,-0.051,4.763999999999999
0.7185,-0.055999999999999994,4.74
0.719,-0.051,4.72
0.7195,-0.046,4.711
0.72,-0.051,4.691
0.7205,-0.051,4.662
0.721,-0.046,4.652
0.7215,-0.046,4.632
0.722,-0.046,4.603
0.7225,-0.051,4.5889999999999995
0.723,-0.051,4.574
0.7235,-0.051,4.545
0.724,-0.051,4.53
0.7245,-0.051,4.51
0.725,-0.055999999999999994,4.4910000000000005
0.7255,-0.051,4.471
0.726,-0.055999999999999994,4.452
0.7265,-0.055999999999999994,4.4319999999999995
0.727,-0.051,4.413
0.7275,-0.051,4.393
0.728,-0.055999999999999994,4.374
0.7285,-0.051,4.354
0.729,-0.051,4.335
0.7295,-0.055999999999999994,4.31
0.73,-0.055999999999999994,4.291
0.7305,-0.051,4.281000000000001
0.731,-0.051,4.256
0.7315,-0.051,4.237
0.732,-0.051,4.212
0.7325,-0.055999999999999994,4.188
0.733,-0.046,4.164
0.7335,-0.051,4.149
0.734,-0.055999999999999994,4.129
0.7345,-0.051,4.105
0.735,-0.051,4.085
0.7355,-0.055999999999999994,4.066
0.736,-0.055999999999999994,4.042
0.7365,-0.051,4.027
0.737,-0.051,4.007
0.7375,-0.055999999999999994,3.983
0.738,-0.051,3.968
0.7385,-0.051,3.9539999999999997
0.739,-0.055999999999999994,3.924
0.7395,-0.051,3.91
0.74,-0.051,3.89
0.7405,-0.055999999999999994,3.861
0.741,-0.051,3.841
0.7415,-0.051,3.827
0.742,-0.055999999999999994,3.802
0.7425,-0.051,3.778
0.743,-0.046,3.763
0.7435,-0.055999999999999994,3.734
0.744,-0.051,3.7089999999999996
0.7445,-0.051,3.695
0.745,-0.055999999999999994,3.675
0.7455,-0.055999999999999994,3.6460000000000004
0.746,-0.055999999999999994,3.6260000000000003
0.7465,-0.055999999999999994,3.6069999999999998
0.747,-0.055999999999999994,3.5780000000000003
0.7475,-0.055999999999999994,3.563
0.748,-0.051,3.543
0.7485,-0.051,3.5239999999999996
0.749,-0.051,3.4989999999999997
0.7495,-0.055999999999999994,3.485
0.75,-0.061,3.455
0.7505,-0.051,3.4360000000000004
0.751,-0.051,3.4210000000000003
0.7515,-0.055999999999999994,3.392
0.752,-0.055999999999999994,3.377
0.7525,-0.051,3.353
0.753,-0.061,3.3280000000000003
0.7535,-0.055999999999999994,3.304
0.754,-0.055999999999999994,3.284
0.7545,-0.061,3.26
0.755,-0.055999999999999994,3.241
0.7555,-0.051,3.221
0.756,-0.061,3.197
0.7565,-0.055999999999999994,3.1719999999999997
0.757,-0.055999999999999994,3.148
0.7575,-0.055999999999999994,3.128
0.758,-0.055999999999999994,3.1039999999999996
0.7585,-0.051,3.089
0.759,-0.055999999999999994,3.065
0.7595,-0.055999999999999994,3.04
0.76,-0.055999999999999994,3.0210000000000004
0.7605,-0.055999999999999994,3.0010000000000003
0.761,-0.061,2.977
0.7615,-0.051,2.957
0.762,-0.055999999999999994,2.938
0.7625,-0.061,2.904
0.763,-0.055999999999999994,2.889
0.7635,-0.061,2.8689999999999998
0.764,-0.066,2.84
0.7645,-0.051,2.821
0.765,-0.055999999999999994,2.801
0.7655,-0.061,2.772
0.766,-0.061,2.752
0.7665,-0.055999999999999994,2.733
0.767,-0.061,2.708
0.7675,-0.055999999999999994,2.6839999999999997
0.768,-0.051,2.6639999999999997
0.7685,-0.055999999999999994,2.64
0.769,-0.061,2.62
0.7695,-0.055999999999999994,2.6010000000000004
0.77,-0.055999999999999994,2.571
0.7705,-0.055999999999999994,2.5469999999999997
0.771,-0.051,2.5269999999999997
0.7715,-0.055999999999999994,2.508
0.772,-0.055999999999999994,2.479
0.7725,-0.061,2.459
0.773,-0.055999999999999994,2.444
0.7735,-0.066,2.41
0.774,-0.055999999999999994,2.391
0.7745,-0.055999999999999994,2.371
0.775,-0.061,2.3369999999999997
0.7755,-0.055999999999999994,2.322
0.776,-0.055999999999999994,2.303
0.7765,-0.066,2.274
0.777,-0.055999999999999994,2.254
0.7775,-0.055999999999999994,2.23
0.778,-0.061,2.21
0.7785,-0.055999999999999994,2.176
0.779,-0.051,2.161
0.7795,-0.055999999999999994,2.142
0.78,-0.055999999999999994,2.112
0.7805,-0.061,2.093
0.781,-0.061,2.068
0.7815,-0.061,2.044
0.782,-0.055999999999999994,2.024
0.7825,-0.055999999999999994,2.005
0.783,-0.061,1.976
0.7835,-0.061,1.956
0.784,-0.061,1.9369999999999998
0.7845,-0.061,1.9069999999999998
0.785,-0.061,1.883
0.7855,-0.061,1.858
0.786,-0.066,1.834
0.7865,-0.061,1.814
0.787,-0.061,1.795
0.7875,-0.061,1.766
0.788,-0.061,1.746
0.7885,-0.055999999999999994,1.722
0.789,-0.061,1.702
0.7895,-0.061,1.6680000000000001
0.79,-0.055999999999999994,1.653
0.7905,-0.061,1.629
0.791,-0.055999999999999994,1.604
0.7915,-0.055999999999999994,1.585
0.792,-0.061,1.56
0.7925,-0.055999999999999994,1.531
0.793,-0.055999999999999994,1.516
0.7935,-0.061,1.4869999999999999
0.794,-0.066,1.463
0.7945,-0.061,1.4380000000000002
0.795,-0.055999999999999994,1.419
0.7955,-0.061,1.3940000000000001
0.796,-0.061,1.365
0.7965,-0.055999999999999994,1.3459999999999999
0.797,-0.066,1.321
0.7975,-0.061,1.2919999999999998
0.798,-0.061,1.2770000000000001
0.7985,-0.061,1.253
0.799,-0.055999999999999994,1.2229999999999999
0.7995,-0.055999999999999994,1.204
0.8,-0.061,1.1840000000000002
0.8005,-0.066,1.155
0.801,-0.055999999999999994,1.136
0.8015,-0.055999999999999994,1.111
0.802,-0.066,1.087
0.8025,-0.061,1.062
0.803,-0.055999999999999994,1.038
0.8035,-0.066,1.013
0.804,-0.055999999999999994,0.9940000000000001
0.8045,-0.061,0.9690000000000001
0.805,-0.066,0.94
0.8055,-0.061,0.9159999999999999
0.806,-0.061,0.8959999999999999
0.8065,-0.066,0.872
0.807,-0.061,0.8420000000000001
0.8075,-0.061,0.823
0.808,-0.055999999999999994,0.8029999999999999
0.8085,-0.061,0.779
0.809,-0.055999999999999994,0.755
0.8095,-0.061,0.73
0.81,-0.061,0.701
0.8105,-0.055999999999999994,0.6859999999999999
0.811,-0.061,0.662
0.8115,-0.061,0.628
0.812,-0.055999999999999994,0.613
0.8125,-0.061,0.593
0.813,-0.066,0.5589999999999999
0.8135,-0.066,0.54
0.814,-0.061,0.515
0.8145,-0.066,0.491
0.815,-0.061,0.462
0.8155,-0.061,0.442
0.816,-0.061,0.418
0.8165,-0.061,0.39299999999999996
0.817,-0.061,0.374
0.8175,-0.066,0.344
0.818,-0.061,0.325
0.8185,-0.055999999999999994,0.3
0.819,-0.061,0.276
0.8195,-0.061,0.256
0.82,-0.055999999999999994,0.23199999999999998
0.8205,-0.061,0.20800000000000002
0.821,-0.061,0.17800000000000002
0.8215,-0.055999999999999994,0.159
0.822,-0.061,0.134
0.8225,-0.066,0.105
0.823,-0.055999999999999994,0.085
0.8235,-0.061,0.071
0.824,-0.066,0.037000000000000005
0.8245,-0.061,0.012
0.825,-0.055999999999999994,-0.006999999999999999
0.8255,-0.066,-0.037000000000000005
0.826,-0.061,-0.055999999999999994
0.8265,-0.055999999999999994,-0.081
0.827,-0.061,-0.11
0.8275,-0.061,-0.129
0.828,-0.055999999999999994,-0.154
0.8285,-0.066,-0.17800000000000002
0.829,-0.061,-0.20800000000000002
0.8295,-0.055999999999999994,-0.222
0.83,-0.061,-0.247
0.8305,-0.061,-0.281
0.831,-0.061,-0.295
0.8315,-0.066,-0.32
0.832,-0.066,-0.349
0.8325,-0.055999999999999994,-0.369
0.833,-0.061,-0.39299999999999996
0.8335,-0.066,-0.42200000000000004
0.834,-0.061,-0.442
0.8345,-0.066,-0.462
0.835,-0.066,-0.491
0.8355,-0.061,-0.515
0.836,-0.061,-0.54
0.8365,-0.066,-0.569
0.837,-0.061,-0.584
0.8375,-0.066,-0.608
0.838,-0.066,-0.637
0.8385,-0.061,-0.657
0.839,-0.055999999999999994,-0.6809999999999999
0.8395,-0.066,-0.706
0.84,-0.061,-0.735
0.8405,-0.061,-0.75
0.841,-0.061,-0.774
0.8415,-0.055999999999999994,-0.8029999999999999
0.842,-0.055999999999999994,-0.823
0.8425,-0.066,-0.847
0.843,-0.066,-0.877
0.8435,-0.061,-0.8959999999999999
0.844,-0.061,-0.9159999999999999
0.8445,-0.066,-0.95
0.845,-0.061,-0.9690000000000001
0.8455,-0.061,-0.9890000000000001
0.846,-0.066,-1.013
0.8465,-0.061,-1.043
0.847,-0.061,-1.062
0.8475,-0.066,-1.092
0.848,-0.061,-1.111
0.8485,-0.061,-1.131
0.849,-0.066,-1.16
0.8495,-0.055999999999999994,-1.179
0.85,-0.055999999999999994,-1.204
0.8505,-0.061,-1.228
0.851,-0.061,-1.258
0.8515,-0.055999999999999994,-1.2770000000000001
0.852,-0.061,-1.3019999999999998
0.8525,-0.066,-1.331
0.853,-0.055999999999999994,-1.3459999999999999
0.8535,-0.066,-1.375
0.854,-0.061,-1.399
0.8545,-0.061,-1.4240000000000002
0.855,-0.066,-1.443
0.8555,-0.066,-1.473
0.856,-0.061,-1.492
0.8565,-0.061,-1.5119999999999998
0.857,-0.066,-1.541
0.8575,-0.061,-1.56
0.858,-0.061,-1.585
0.8585,-0.061,-1.609
0.859,-0.061,-1.6340000000000001
0.8595,-0.055999999999999994,-1.653
0.86,-0.066,-1.683
0.8605,-0.061,-1.702
0.861,-0.055999999999999994,-1.722
0.8615,-0.061,-1.751
0.862,-0.066,-1.78
0.8625,-0.055999999999999994,-1.795
0.863,-0.061,-1.819
0.8635,-0.055999999999999994,-1.849
0.864,-0.055999999999999994,-1.868
0.8645,-0.066,-1.893
0.865,-0.061,-1.922
0.8655,-0.061,-1.9369999999999998
0.866,-0.061,-1.9609999999999999
0.8665,-0.066,-1.99
0.867,-0.061,-2.015
0.8675,-0.061,-2.029
0.868,-0.066,-2.059
0.8685,-0.061,-2.0780000000000003
0.869,-0.061,-2.103
0.8695,-0.066,-2.127
0.87,-0.061,-2.147
0.8705,-0.061,-2.171
0.871,-0.066,-2.195
0.8715,-0.061,-2.215
0.872,-0.061,-2.234
0.8725,-0.066,-2.2640000000000002
0.873,-0.061,-2.2880000000000003
0.8735,-0.055999999999999994,-2.3080000000000003
0.874,-0.061,-2.3369999999999997
0.8745,-0.061,-2.3609999999999998
0.875,-0.061,-2.381
0.8755,-0.061,-2.41
0.876,-0.061,-2.435
0.8765,-0.055999999999999994,-2.449
0.877,-0.066,-2.474
0.8775,-0.061,-2.498
0.878,-0.061,-2.5180000000000002
0.8785,-0.055999999999999994,-2.542
0.879,-0.061,-2.5669999999999997
0.8795,-0.055999999999999994,-2.5860000000000003
0.88,-0.055999999999999994,-2.6060000000000003
0.8805,-0.066,-2.635
0.881,-0.055999999999999994,-2.654
0.8815,-0.055999999999999994,-2.674
0.882,-0.061,-2.7030000000000003
0.8825,-0.061,-2.7230000000000003
0.883,-0.055999999999999994,-2.742
0.8835,-0.066,-2.7769999999999997
0.884,-0.055999999999999994,-2.7960000000000003
0.8845,-0.055999999999999994,-2.8160000000000003
0.885,-0.066,-2.84
0.8855,-0.061,-2.86
0.886,-0.055999999999999994,-2.884
0.8865,-0.061,-2.908
0.887,-0.061,-2.928
0.8875,-0.055999999999999994,-2.947
0.888,-0.066,-2.972
0.8885,-0.061,-3.0010000000000003
0.889,-0.055999999999999994,-3.016
0.8895,-0.061,-3.04
0.89,-0.055999999999999994,-3.065
0.8905,-0.055999999999999994,-3.0789999999999997
0.891,-0.055999999999999994,-3.1039999999999996
0.8915,-0.055999999999999994,-3.133
0.892,-0.051,-3.148
0.8925,-0.061,-3.1719999999999997
0.893,-0.066,-3.201
0.8935,-0.061,-3.221
0.894,-0.061,-3.236
0.8945,-0.061,-3.27
0.895,-0.061,-3.284
0.8955,-0.061,-3.3089999999999997
0.896,-0.061,-3.333
0.8965,-0.061,-3.353
0.897,-0.055999999999999994,-3.372
0.8975,-0.061,-3.397
0.898,-0.061,-3.4160000000000004
0.8985,-0.055999999999999994,-3.4360000000000004
0.899,-0.061,-3.465
0.8995,-0.055999999999999994,-3.485
0.9,-0.055999999999999994,-3.5039999999999996
0.9005,-0.061,-3.529
0.901,-0.061,-3.553
0.9015,-0.055999999999999994,-3.568
0.902,-0.055999999999999994,-3.592
0.9025,-0.061,-3.6210000000000004
0.903,-0.055999999999999994,-3.6310000000000002
0.9035,-0.055999999999999994,-3.656
0.904,-0.055999999999999994,-3.685
0.9045,-0.055999999999999994,-3.7
0.905,-0.061,-3.7239999999999998
0.9055,-0.066,-3.748
0.906,-0.055999999999999994,-3.7680000000000002
0.9065,-0.055999999999999994,-3.7880000000000003
0.907,-0.061,-3.812
0.9075,-0.055999999999999994,-3.832
0.908,-0.055999999999999994,-3.846
0.9085,-0.061,-3.875
0.909,-0.055999999999999994,-3.895
0.9095,-0.055999999999999994,-3.91
0.91,-0.061,-3.9389999999999996
0.9105,-0.055999999999999994,-3.9539999999999997
0.911,-0.051,-3.978
0.9115,-0.055999999999999994,-3.9930000000000003
0.912,-0.055999999999999994,-4.027
0.9125,-0.055999999999999994,-4.042
0.913,-0.055999999999999994,-4.061
0.9135,-0.061,-4.09
0.914,-0.055999999999999994,-4.105
0.9145,-0.055999999999999994,-4.125
0.915,-0.055999999999999994,-4.149
0.9155,-0.055999999999999994,-4.168
0.916,-0.055999999999999994,-4.188
0.9165,-0.061,-4.212
0.917,-0.055999999999999994,-4.227
0.9175,-0.055999999999999994,-4.242
0.918,-0.055999999999999994,-4.271
0.9185,-0.055999999999999994,-4.291
0.919,-0.055999999999999994,-4.305
0.9195,-0.051,-4.33
0.92,-0.055999999999999994,-4.349
0.9205,-0.051,-4.369
0.921,-0.055999999999999994,-4.393
0.9215,-0.051,-4.408
0.922,-0.051,-4.427
0.9225,-0.055999999999999994,-4.452
0.923,-0.055999999999999994,-4.476
0.9235,-0.051,-4.4910000000000005
0.924,-0.055999999999999994,-4.51
0.9245,-0.055999999999999994,-4.54
0.925,-0.051,-4.5489999999999995
0.9255,-0.055999999999999994,-4.569
0.926,-0.055999999999999994,-4.598
0.9265,-0.051,-4.613
0.927,-0.055999999999999994,-4.632
0.9275,-0.051,-4.657
0.928,-0.051,-4.672
0.9285,-0.055999999999999994,-4.686
0.929,-0.061,-4.711
0.9295,-0.051,-4.725
0.93,-0.055999999999999994,-4.745
0.9305,-0.055999999999999994,-4.763999999999999
0.931,-0.051,-4.784
0.9315,-0.051,-4.7989999999999995
0.932,-0.055999999999999994,-4.823
0.9325,-0.051,-4.842
0.933,-0.051,-4.857
0.9335,-0.061,-4.882
0.934,-0.055999999999999994,-4.906000000000001
0.9345,-0.051,-4.916
0.935,-0.055999999999999994,-4.94
0.9355,-0.051,-4.965
0.936,-0.055999999999999994,-4.974
0.9365,-0.055999999999999994,-4.999
0.937,-0.051,-5.018
0.9375,-0.051,-5.033
0.938,-0.051,-5.053
0.9385,-0.055999999999999994,-5.072
0.939,-0.046,-5.087
0.9395,-0.051,-5.106
0.94,-0.055999999999999994,-5.126
0.9405,-0.051,-5.145
0.941,-0.046,-5.16
0.9415,-0.051,-5.178999999999999
0.942,-0.051,-5.194
0.9425,-0.051,-5.2139999999999995
0.943,-0.055999999999999994,-5.233
0.9435,-0.051,-5.252999999999999
0.944,-0.046,-5.267
0.9445,-0.055999999999999994,-5.292000000000001
0.945,-0.051,-5.306
0.9455,-0.051,-5.3260000000000005
0.946,-0.051,-5.346
0.9465,-0.051,-5.36
0.947,-0.046,-5.375
0.9475,-0.051,-5.399
0.948,-0.051,-5.414
0.9485,-0.046,-5.428999999999999
0.949,-0.055999999999999994,-5.4479999999999995
0.9495,-0.051,-5.468
0.95,-0.046,-5.477
0.9505,-0.051,-5.497000000000001
0.951,-0.051,-5.516
0.9515,-0.042,-5.5360000000000005
0.952,-0.051,-5.546
0.9525,-0.055999999999999994,-5.57
0.953,-0.046,-5.585
0.9535,-0.051,-5.604
0.954,-0.051,-5.624
0.9545,-0.051,-5.6339999999999995
0.955,-0.046,-5.653
0.9555,-0.051,-5.678
0.956,-0.046,-5.692
0.9565,-0.051,-5.702000000000001
0.957,-0.051,-5.722
0.9575,-0.051,-5.736000000000001
0.958,-0.042,-5.751
0.9585,-0.051,-5.77
0.959,-0.046,-5.785
0.9595,-0.046,-5.8
0.96,-0.046,-5.819
0.9605,-0.046,-5.8389999999999995
0.961,-0.046,-5.849
0.9615,-0.046,-5.867999999999999
0.962,-0.046,-5.888
0.9625,-0.046,-5.902
0.963,-0.046,-5.912000000000001
0.9635,-0.051,-5.937
0.964,-0.046,-5.9510000000000005
0.9645,-0.046,-5.961
0.965,-0.055999999999999994,-5.985
0.9655,-0.046,-5.995
0.966,-0.046,-6.01
0.9665,-0.051,-6.029
0.967,-0.046,-6.044
0.9675,-0.046,-6.053999999999999
0.968,-0.046,-6.0729999999999995
0.9685,-0.046,-6.087999999999999
0.969,-0.042,-6.103
0.9695,-0.046,-6.122000000000001
0.97,-0.046,-6.142
0.9705,-0.046,-6.147
0.971,-0.046,-6.1610000000000005
0.9715,-0.046,-6.181
0.972,-0.046,-6.19
0.9725,-0.046,-6.21
0.973,-0.042,-6.225
0.9735,-0.042,-6.239
0.974,-0.046,-6.254
0.9745,-0.046,-6.274
0.975,-0.042,-6.2829999999999995
0.9755,-0.046,-6.292999999999999
0.976,-0.046,-6.317
0.9765,-0.042,-6.327000000000001
0.977,-0.046,-6.332000000000001
0.9775,-0.046,-6.357
0.978,-0.042,-6.371
0.9785,-0.042,-6.376
0.979,-0.046,-6.396
0.9795,-0.042,-6.41
0.98,-0.037000000000000005,-6.42
0.9805,-0.046,-6.44
0.981,-0.042,-6.449
0.9815,-0.037000000000000005,-6.459
0.982,-0.042,-6.474
0.9825,-0.042,-6.492999999999999
0.983,-0.037000000000000005,-6.502999999999999
0.9835,-0.046,-6.518
0.984,-0.037000000000000005,-6.537000000000001
0.9845,-0.042,-6.542000000000001
0.985,-0.046,-6.557
0.9855,-0.046,-6.5760000000000005
0.986,-0.042,-6.586
0.9865,-0.042,-6.596
0.987,-0.046,-6.615
0.9875,-0.037000000000000005,-6.625
0.988,-0.042,-6.635
0.9885,-0.046,-6.654
0.989,-0.042,-6.659
0.9895,-0.042,-6.664
0.99,-0.046,-6.689
0.9905,-0.037000000000000005,-6.6979999999999995
0.991,-0.037000000000000005,-6.702999999999999
0.9915,-0.042,-6.723
0.992,-0.037000000000000005,-6.737
0.9925,-0.037000000000000005,-6.747000000000001
0.993,-0.042,-6.757000000000001
0.9935,-0.037000000000000005,-6.777
0.994,-0.037000000000000005,-6.7860000000000005
0.9945,-0.042,-6.791
0.995,-0.042,-6.816
0.9955,-0.032,-6.821000000000001
0.996,-0.042,-6.83
0.9965,-0.037000000000000005,-6.85
0.997,-0.037000000000000005,-6.855
0.9975,-0.037000000000000005,-6.86
0.998,-0.046,-6.879
0.9985,-0.042,-6.888999999999999
0.999,-0.042,-6.894
0.9995,-0.042,-6.912999999999999
1.0,-0.037000000000000005,-6.922999999999999
1.0005,-0.037000000000000005,-6.928
1.001,-0.042,-6.938
1.0015,-0.037000000000000005,-6.952000000000001
1.002,-0.032,-6.962000000000001
1.0025,-0.042,-6.977
1.003,-0.037000000000000005,-6.987
1.0035,-0.037000000000000005,-6.9910000000000005
1.004,-0.037000000000000005,-7.006
1.0045,-0.037000000000000005,-7.021
1.005,-0.037000000000000005,-7.031000000000001
1.0055,-0.042,-7.04
1.006,-0.037000000000000005,-7.05
1.0065,-0.032,-7.06
1.007,-0.042,-7.065
1.0075,-0.042,-7.079
1.008,-0.032,-7.084
1.0085,-0.037000000000000005,-7.0889999999999995
1.009,-0.037000000000000005,-7.109
1.0095,-0.032,-7.117999999999999
1.01,-0.037000000000000005,-7.122999999999999
1.0105,-0.037000000000000005,-7.138
1.011,-0.032,-7.143
1.0115,-0.032,-7.148
1.012,-0.037000000000000005,-7.162000000000001
1.0125,-0.032,-7.172000000000001
1.013,-0.027000000000000003,-7.1770000000000005
1.0135,-0.037000000000000005,-7.192
1.014,-0.032,-7.2010000000000005
1.0145,-0.032,-7.211
1.015,-0.037000000000000005,-7.226
1.0155,-0.037000000000000005,-7.231
1.016,-0.032,-7.236000000000001
1.0165,-0.037000000000000005,-7.245
1.017,-0.032,-7.26
1.0175,-0.032,-7.26
1.018,-0.032,-7.27
1.0185,-0.037000000000000005,-7.28
1.019,-0.027000000000000003,-7.284
1.0195,-0.032,-7.294
1.02,-0.037000000000000005,-7.303999999999999
1.0205,-0.032,-7.309
1.021,-0.032,-7.314
1.0215,-0.027000000000000003,-7.327999999999999
1.022,-0.027000000000000003,-7.332999999999999
1.0225,-0.032,-7.337999999999999
1.023,-0.032,-7.353
1.0235,-0.032,-7.358
1.024,-0.032,-7.3629999999999995
1.0245,-0.037000000000000005,-7.377000000000001
1.025,-0.032,-7.382000000000001
1.0255,-0.027000000000000003,-7.3870000000000005
1.026,-0.032,-7.397
1.0265,-0.032,-7.4110000000000005
1.027,-0.032,-7.407
1.0275,-0.032,-7.416
1.028,-0.032,-7.421
1.0285,-0.032,-7.431
1.029,-0.032,-7.436
1.0295,-0.032,-7.446000000000001
1.03,-0.027000000000000003,-7.4510000000000005
1.0305,-0.027000000000000003,-7.455
1.031,-0.027000000000000003,-7.47
1.0315,-0.022000000000000002,-7.47
1.032,-0.027000000000000003,-7.47
1.0325,-0.032,-7.485
1.033,-0.027000000000000003,-7.49
1.0335,-0.027000000000000003,-7.495
1.034,-0.032,-7.504
1.0345,-0.027000000000000003,-7.5089999999999995
1.035,-0.027000000000000003,-7.513999999999999
1.0355,-0.032,-7.524
1.036,-0.027000000000000003,-7.529
1.0365,-0.027000000000000003,-7.529
1.037,-0.032,-7.537999999999999
1.0375,-0.027000000000000003,-7.542999999999999
1.038,-0.027000000000000003,-7.542999999999999
1.0385,-0.027000000000000003,-7.553
1.039,-0.022000000000000002,-7.558
1.0395,-0.022000000000000002,-7.563
1.04,-0.027000000000000003,-7.563
1.0405,-0.027000000000000003,-7.577999999999999
1.041,-0.022000000000000002,-7.577999999999999
1.0415,-0.027000000000000003,-7.577999999999999
1.042,-0.027000000000000003,-7.5920000000000005
1.0425,-0.022000000000000002,-7.5920000000000005
1.043,-0.027000000000000003,-7.597
1.0435,-0.027000000000000003,-7.607
1.044,-0.022000000000000002,-7.607
1.0445,-0.027000000000000003,-7.612
1.045,-0.027000000000000003,-7.621
1.0455,-0.022000000000000002,-7.621
1.046,-0.027000000000000003,-7.621
1.0465,-0.032,-7.631
1.047,-0.027000000000000003,-7.636
1.0475,-0.022000000000000002,-7.631
1.048,-0.032,-7.641
1.0485,-0.022000000000000002,-7.646
1.049,-0.017,-7.641
1.0495,-0.022000000000000002,-7.651
1.05,-0.022000000000000002,-7.656000000000001
1.0505,-0.017,-7.656000000000001
1.051,-0.022000000000000002,-7.6610000000000005
1.0515,-0.017,-7.67
1.052,-0.017,-7.67
1.0525,-0.027000000000000003,-7.675
1.053,-0.022000000000000002,-7.68
1.0535,-0.022000000000000002,-7.68
1.054,-0.017,-7.675
1.0545,-0.027000000000000003,-7.69
1.055,-0.022000000000000002,-7.69
1.0555,-0.022000000000000002,-7.69
1.056,-0.027000000000000003,-7.7
1.0565,-0.022000000000000002,-7.7
1.057,-0.022000000000000002,-7.695
1.0575,-0.027000000000000003,-7.709
1.058,-0.022000000000000002,-7.705
1.0585,-0.017,-7.709
1.059,-0.022000000000000002,-7.709
1.0595,-0.017,-7.718999999999999
1.06,-0.012,-7.709
1.0605,-0.022000000000000002,-7.718999999999999
1.061,-0.017,-7.718999999999999
1.0615,-0.017,-7.7139999999999995
1.062,-0.017,-7.724
1.0625,-0.017,-7.729
1.063,-0.017,-7.729
1.0635,-0.022000000000000002,-7.734
1.064,-0.022000000000000002,-7.734
1.0645,-0.022000000000000002,-7.739
1.065,-0.017,-7.729
1.0655,-0.022000000000000002,-7.739
1.066,-0.017,-7.739
1.0665,-0.022000000000000002,-7.739
1.067,-0.027000000000000003,-7.747999999999999
1.0675,-0.022000000000000002,-7.747999999999999
1.068,-0.017,-7.744
1.0685,-0.022000000000000002,-7.747999999999999
1.069,-0.022000000000000002,-7.747999999999999
1.0695,-0.006999999999999999,-7.744
1.07,-0.012,-7.744
1.0705,-0.017,-7.747999999999999
1.071,-0.012,-7.744
1.0715,-0.012,-7.744
1.072,-0.012,-7.744
1.0725,-0.006999999999999999,-7.739
1.073,-0.012,-7.734
1.0735,-0.012,-7.739
1.074,-0.006999999999999999,-7.734
1.0745,-0.017,-7.729
1.075,-0.017,-7.734
1.0755,-0.012,-7.729
1.076,-0.006999999999999999,-7.724
1.0765,-0.017,-7.729
1.077,-0.012,-7.724
1.0775,-0.012,-7.7139999999999995
1.078,-0.012,-7.718999999999999
1.0785,-0.006999999999999999,-7.718999999999999
1.079,-0.006999999999999999,-7.709
1.0795,-0.012,-7.709
1.08,-0.012,-7.7139999999999995
1.0805,-0.006999999999999999,-7.705
1.081,-0.012,-7.7
1.0815,-0.012,-7.695
1.082,-0.006999999999999999,-7.695
1.0825,-0.006999999999999999,-7.69
1.083,-0.012,-7.695
1.0835,-0.006999999999999999,-7.685
1.084,-0.012,-7.68
1.0845,-0.012,-7.685
1.085,-0.006999999999999999,-7.675
1.0855,-0.012,-7.67
1.086,-0.012,-7.67
1.0865,-0.012,-7.665
1.087,-0.012,-7.6610000000000005
1.0875,-0.012,-7.6610000000000005
1.088,-0.012,-7.656000000000001
1.0885,-0.006999999999999999,-7.646
1.089,-0.012,-7.646
1.0895,-0.006999999999999999,-7.641
1.09,-0.002,-7.636
1.0905,-0.006999999999999999,-7.631
1.091,-0.006999999999999999,-7.636
1.0915,-0.002,-7.626
1.092,-0.006999999999999999,-7.617000000000001
1.0925,-0.006999999999999999,-7.617000000000001
1.093,-0.002,-7.612
1.0935,-0.006999999999999999,-7.607
1.094,-0.002,-7.607
1.0945,-0.002,-7.597
1.095,-0.006999999999999999,-7.5920000000000005
1.0955,-0.012,-7.597
1.096,-0.006999999999999999,-7.582000000000001
1.0965,-0.006999999999999999,-7.577999999999999
1.097,-0.006999999999999999,-7.577999999999999
1.0975,-0.006999999999999999,-7.5729999999999995
1.098,-0.006999999999999999,-7.563
1.0985,-0.002,-7.558
1.099,-0.002,-7.553
1.0995,-0.002,-7.542999999999999
1.1,-0.006999999999999999,-7.537999999999999
1.1005,-0.002,-7.534
1.101,-0.002,-7.524
1.1015,-0.002,-7.519
1.102,-0.002,-7.519
1.1025,-0.002,-7.5089999999999995
1.103,-0.002,-7.499
1.1035,-0.006999999999999999,-7.499
1.104,-0.002,-7.495
1.1045,-0.006999999999999999,-7.49
1.105,-0.006999999999999999,-7.49
1.1055,-0.006999999999999999,-7.475
1.106,-0.002,-7.465
1.1065,-0.006999999999999999,-7.47
1.107,-0.002,-7.455
1.1075,-0.006999999999999999,-7.446000000000001
1.108,-0.006999999999999999,-7.441
1.1085,0.002,-7.436
1.109,-0.002,-7.426
1.1095,-0.002,-7.416
1.11,-0.002,-7.4110000000000005
1.1105,0.002,-7.397
1.111,-0.002,-7.397
1.1115,-0.002,-7.382000000000001
1.112,0.002,-7.377000000000001
1.1125,-0.002,-7.367999999999999
1.113,0.002,-7.372000000000001
1.1135,0.002,-7.358
1.114,-0.002,-7.348
1.1145,-0.002,-7.348
1.115,-0.002,-7.332999999999999
1.1155,-0.002,-7.324
1.116,-0.006999999999999999,-7.319
1.1165,0.002,-7.314
1.117,-0.002,-7.2989999999999995
1.1175,-0.006999999999999999,-7.2989999999999995
1.118,-0.002,-7.284
1.1185,0.002,-7.27
1.119,-0.002,-7.265
1.1195,0.002,-7.26
1.12,0.006999999999999999,-7.245
1.1205,0.002,-7.2410000000000005
1.121,0.002,-7.231
1.1215,0.006999999999999999,-7.216
1.122,0.002,-7.206
1.1225,0.002,-7.206
1.123,0.006999999999999999,-7.187
1.1235,-0.006999999999999999,-7.187
1.124,-0.002,-7.187
1.1245,0.002,-7.167000000000001
1.125,0.002,-7.1579999999999995
1.1255,0.002,-7.153
1.126,0.002,-7.138
1.1265,0.006999999999999999,-7.122999999999999
1.127,0.002,-7.122999999999999
1.1275,0.002,-7.109
1.128,0.002,-7.093999999999999
1.1285,-0.002,-7.0889999999999995
1.129,0.006999999999999999,-7.079
1.1295,0.006999999999999999,-7.065
1.13,-0.002,-7.06
1.1305,0.006999999999999999,-7.045
1.131,0.006999999999999999,-7.031000000000001
1.1315,0.006999999999999999,-7.026
1.132,0.006999999999999999,-7.016
1.1325,0.006999999999999999,-7.001
1.133,0.002,-6.996
1.1335,0.002,-6.982
1.134,0.012,-6.9670000000000005
1.1345,0.002,-6.962000000000001
1.135,0.002,-6.952000000000001
1.1355,0.006999999999999999,-6.938
1.136,0.006999999999999999,-6.928
1.1365,0.002,-6.917999999999999
1.137,0.002,-6.9079999999999995
1.1375,0.006999999999999999,-6.888999999999999
1.138,0.002,-6.8839999999999995
1.1385,0.012,-6.864
1.139,0.006999999999999999,-6.85
1.1395,0.002,-6.85
1.14,0.012,-6.83
1.1405,0.012,-6.821000000000001
1.141,0.002,-6.811
1.1415,0.006999999999999999,-6.796
1.142,0.012,-6.781000000000001
1.1425,0.006999999999999999,-6.777
1.143,0.012,-6.767
1.1435,0.012,-6.747000000000001
1.144,0.006999999999999999,-6.733
1.1445,0.006999999999999999,-6.728
1.145,0.012,-6.712999999999999
1.1455,0.006999999999999999,-6.6979999999999995
1.146,0.006999999999999999,-6.689
1.1465,0.012,-6.6739999999999995
1.147,0.006999999999999999,-6.654
1.1475,0.012,-6.65
1.148,0.012,-6.635
1.1485,0.012,-6.615
1.149,0.006999999999999999,-6.611000000000001
1.1495,0.012,-6.591
1.15,0.012,-6.5760000000000005
1.1505,0.006999999999999999,-6.567
1.151,0.012,-6.5520000000000005
1.1515,0.012,-6.532
1.152,0.006999999999999999,-6.527
1.1525,0.012,-6.513
1.153,0.017,-6.492999999999999
1.1535,0.012,-6.4879999999999995
1.154,0.012,-6.479
1.1545,0.017,-6.459
1.155,0.012,-6.444
1.1555,0.012,-6.44
1.156,0.017,-6.415
1.1565,0.012,-6.4
1.157,0.006999999999999999,-6.396
1.1575,0.012,-6.371
1.158,0.012,-6.357
1.1585,0.006999999999999999,-6.347
1.159,0.012,-6.327000000000001
1.1595,0.012,-6.308
1.16,0.012,-6.297999999999999
1.1605,0.012,-6.2829999999999995
1.161,0.017,-6.263999999999999
1.1615,0.012,-6.254
1.162,0.017,-6.234
1.1625,0.017,-6.22
1.163,0.012,-6.205
1.1635,0.012,-6.195
1.164,0.017,-6.176
1.1645,0.012,-6.1610000000000005
1.165,0.017,-6.151
1.1655,0.017,-6.132000000000001
1.166,0.012,-6.117000000000001
1.1665,0.012,-6.107
1.167,0.022000000000000002,-6.087999999999999
1.1675,0.012,-6.068
1.168,0.006999999999999999,-6.059
1.1685,0.017,-6.034
1.169,0.017,-6.02
1.1695,0.012,-6.005
1.17,0.017,-5.985
1.1705,0.022000000000000002,-5.971
1.171,0.017,-5.9510000000000005
1.1715,0.017,-5.937
1.172,0.022000000000000002,-5.917000000000001
1.1725,0.012,-5.907
1.173,0.017,-5.893
1.1735,0.012,-5.867999999999999
1.174,0.017,-5.858
1.1745,0.017,-5.8389999999999995
1.175,0.022000000000000002,-5.819
1.1755,0.012,-5.81
1.176,0.012,-5.8
1.1765,0.022000000000000002,-5.77
1.177,0.012,-5.756
1.1775,0.017,-5.746
1.178,0.022000000000000002,-5.7170000000000005
1.1785,0.017,-5.702000000000001
1.179,0.017,-5.692
1.1795,0.022000000000000002,-5.667999999999999
1.18,0.017,-5.648
1.1805,0.017,-5.638999999999999
1.181,0.022000000000000002,-5.614
1.1815,0.022000000000000002,-5.595
1.182,0.017,-5.585
1.1825,0.022000000000000002,-5.57
1.183,0.022000000000000002,-5.546
1.1835,0.017,-5.526
1.184,0.022000000000000002,-5.5120000000000005
1.1845,0.017,-5.492000000000001
1.185,0.017,-5.477
1.1855,0.022000000000000002,-5.457999999999999
1.186,0.022000000000000002,-5.438
1.1865,0.017,-5.4239999999999995
1.187,0.022000000000000002,-5.409
1.1875,0.022000000000000002,-5.385
1.188,0.022000000000000002,-5.37
1.1885,0.022000000000000002,-5.355
1.189,0.022000000000000002,-5.3260000000000005
1.1895,0.022000000000000002,-5.311
1.19,0.022000000000000002,-5.297000000000001
1.1905,0.022000000000000002,-5.272
1.191,0.022000000000000002,-5.252999999999999
1.1915,0.017,-5.233
1.192,0.022000000000000002,-5.218999999999999
1.1925,0.022000000000000002,-5.194
1.193,0.017,-5.184
1.1935,0.022000000000000002,-5.16
1.194,0.027000000000000003,-5.145
1.1945,0.022000000000000002,-5.126
1.195,0.022000000000000002,-5.111000000000001
1.1955,0.022000000000000002,-5.087
1.196,0.017,-5.072
1.1965,0.022000000000000002,-5.053
1.197,0.027000000000000003,-5.0280000000000005
1.1975,0.022000000000000002,-5.0089999999999995
1.198,0.022000000000000002,-4.999
1.1985,0.027000000000000003,-4.968999999999999
1.199,0.022000000000000002,-4.95
1.1995,0.022000000000000002,-4.935
1.2,0.027000000000000003,-4.9110000000000005
1.2005,0.022000000000000002,-4.891
1.201,0.022000000000000002,-4.877
1.2015,0.027000000000000003,-4.857
1.202,0.022000000000000002,-4.833
1.2025,0.017,-4.8180000000000005
1.203,0.027000000000000003,-4.794
1.2035,0.027000000000000003,-4.774
1.204,0.022000000000000002,-4.7589999999999995
1.2045,0.022000000000000002,-4.735
1.205,0.027000000000000003,-4.716
1.2055,0.022000000000000002,-4.691
1.206,0.027000000000000003,-4.681
1.2065,0.027000000000000003,-4.657
1.207,0.022000000000000002,-4.632
1.2075,0.022000000000000002,-4.623
1.208,0.032,-4.598
1.2085,0.022000000000000002,-4.574
1.209,0.027000000000000003,-4.559
1.2095,0.027000000000000003,-4.53
1.21,0.022000000000000002,-4.51
1.2105,0.022000000000000002,-4.496
1.211,0.027000000000000003,-4.471
1.2115,0.027000000000000003,-4.447
1.212,0.022000000000000002,-4.4319999999999995
1.2125,0.032,-4.408
1.213,0.027000000000000003,-4.383
1.2135,0.022000000000000002,-4.369
1.214,0.027000000000000003,-4.349
1.2145,0.032,-4.325
1.215,0.027000000000000003,-4.305
1.2155,0.027000000000000003,-4.295
1.216,0.027000000000000003,-4.261
1.2165,0.022000000000000002,-4.242
1.217,0.022000000000000002,-4.227
1.2175,0.032,-4.198
1.218,0.027000000000000003,-4.178
1.2185,0.027000000000000003,-4.159
1.219,0.032,-4.1339999999999995
1.2195,0.027000000000000003,-4.115
1.22,0.027000000000000003,-4.095
1.2205,0.032,-4.071000000000001
1.221,0.032,-4.042
1.2215,0.027000000000000003,-4.027
1.222,0.032,-4.007
1.2225,0.027000000000000003,-3.983
1.223,0.022000000000000002,-3.968
1.2235,0.027000000000000003,-3.944
1.224,0.032,-3.915
1.2245,0.022000000000000002,-3.9
1.225,0.027000000000000003,-3.88
1.2255,0.032,-3.8510000000000004
1.226,0.027000000000000003,-3.8360000000000003
1.2265,0.032,-3.8169999999999997
1.227,0.032,-3.7880000000000003
1.2275,0.027000000000000003,-3.7680000000000002
1.228,0.032,-3.748
1.2285,0.037000000000000005,-3.7239999999999998
1.229,0.027000000000000003,-3.7
1.2295,0.027000000000000003,-3.68
1.23,0.032,-3.656
1.2305,0.032,-3.6310000000000002
1.231,0.032,-3.612
1.2315,0.037000000000000005,-3.5869999999999997
1.232,0.032,-3.563
1.2325,0.027000000000000003,-3.548
1.233,0.032,-3.5189999999999997
1.2335,0.032,-3.4989999999999997
1.234,0.027000000000000003,-3.48
1.2345,0.032,-3.46
1.235,0.032,-3.431
1.2355,0.027000000000000003,-3.411
1.236,0.032,-3.392
1.2365,0.032,-3.3680000000000003
1.237,0.027000000000000003,-3.343
1.2375,0.032,-3.3280000000000003
1.238,0.032,-3.2939999999999996
1.2385,0.027000000000000003,-3.275
1.239,0.032,-3.255
1.2395,0.037000000000000005,-3.2260000000000004
1.24,0.032,-3.201
1.2405,0.032,-3.182
1.241,0.037000000000000005,-3.158
1.2415,0.032,-3.133
1.242,0.032,-3.1180000000000003
1.2425,0.032,-3.094
1.243,0.037000000000000005,-3.065
1.2435,0.022000000000000002,-3.045
1.244,0.032,-3.0210000000000004
1.2445,0.032,-2.9960000000000004
1.245,0.027000000000000003,-2.977
1.2455,0.032,-2.952
1.246,0.037000000000000005,-2.923
1.2465,0.027000000000000003,-2.908
1.247,0.032,-2.884
1.2475,0.037000000000000005,-2.855
1.248,0.032,-2.835
1.2485,0.037000000000000005,-2.8160000000000003
1.249,0.037000000000000005,-2.7910000000000004
1.2495,0.032,-2.762
1.25,0.032,-2.747
1.2505,0.032,-2.713
1.251,0.037000000000000005,-2.694
1.2515,0.037000000000000005,-2.674
1.252,0.037000000000000005,-2.65
1.2525,0.032,-2.62
1.253,0.032,-2.6060000000000003
1.2535,0.032,-2.5810000000000004
1.254,0.037000000000000005,-2.5469999999999997
1.2545,0.027000000000000003,-2.532
1.255,0.032,-2.508
1.2555,0.032,-2.484
1.256,0.032,-2.464
1.2565,0.032,-2.435
1.257,0.037000000000000005,-2.41
1.2575,0.032,-2.396
1.258,0.037000000000000005,-2.366
1.2585,0.037000000000000005,-2.342
1.259,0.032,-2.3169999999999997
1.2595,0.032,-2.298
1.26,0.042,-2.2640000000000002
1.2605,0.032,-2.244
1.261,0.037000000000000005,-2.22
1.2615,0.037000000000000005,-2.195
1.262,0.032,-2.166
1.2625,0.037000000000000005,-2.151
1.263,0.042,-2.122
1.2635,0.037000000000000005,-2.0980000000000003
1.264,0.027000000000000003,-2.0780000000000003
1.2645,0.032,-2.0540000000000003
1.265,0.032,-2.029
1.2655,0.027000000000000003,-2.01
1.266,0.032,-1.985
1.2665,0.037000000000000005,-1.9609999999999999
1.267,0.032,-1.932
1.2675,0.037000000000000005,-1.912
1.268,0.037000000000000005,-1.883
1.2685,0.032,-1.8630000000000002
1.269,0.042,-1.839
1.2695,0.042,-1.814
1.27,0.032,-1.785
1.2705,0.037000000000000005,-1.77
1.271,0.042,-1.7409999999999999
1.2715,0.037000000000000005,-1.7169999999999999
1.272,0.037000000000000005,-1.692
1.2725,0.037000000000000005,-1.6680000000000001
1.273,0.037000000000000005,-1.639
1.2735,0.037000000000000005,-1.619
1.274,0.037000000000000005,-1.595
1.2745,0.032,-1.57
1.275,0.032,-1.551
1.2755,0.037000000000000005,-1.521
1.276,0.032,-1.4969999999999999
1.2765,0.032,-1.473
1.277,0.037000000000000005,-1.453
1.2775,0.037000000000000005,-1.4240000000000002
1.278,0.037000000000000005,-1.399
1.2785,0.037000000000000005,-1.38
1.279,0.042,-1.35
1.2795,0.032,-1.3259999999999998
1.28,0.037000000000000005,-1.3019999999999998
1.2805,0.037000000000000005,-1.2770000000000001
1.281,0.037000000000000005,-1.253
1.2815,0.037000000000000005,-1.2329999999999999
1.282,0.042,-1.204
1.2825,0.032,-1.179
1.283,0.037000000000000005,-1.16
1.2835,0.037000000000000005,-1.131
1.284,0.037000000000000005,-1.1059999999999999
1.2845,0.037000000000000005,-1.087
1.285,0.037000000000000005,-1.062
1.2855,0.037000000000000005,-1.033
1.286,0.032,-1.013
1.2865,0.037000000000000005,-0.9840000000000001
1.287,0.032,-0.96
1.2875,0.032,-0.94
1.288,0.037000000000000005,-0.9109999999999999
1.2885,0.037000000000000005,-0.882
1.289,0.032,-0.867
1.2895,0.037000000000000005,-0.833
1.29,0.042,-0.813
1.2905,0.032,-0.784
1.291,0.032,-0.759
1.2915,0.042,-0.735
1.292,0.037000000000000005,-0.716
1.2925,0.032,-0.696
1.293,0.042,-0.667
1.2935,0.037000000000000005,-0.642
1.294,0.032,-0.618
1.2945,0.037000000000000005,-0.589
1.295,0.032,-0.564
1.2955,0.032,-0.545
1.296,0.037000000000000005,-0.52
1.2965,0.032,-0.496
1.297,0.032,-0.47600000000000003
1.2975,0.037000000000000005,-0.447
1.298,0.037000000000000005,-0.418
1.2985,0.032,-0.39799999999999996
1.299,0.042,-0.369
1.2995,0.042,-0.33899999999999997
1.3,0.037000000000000005,-0.32
1.3005,0.037000000000000005,-0.3
1.301,0.042,-0.271
1.3015,0.037000000000000005,-0.247
1.302,0.037000000000000005,-0.222
1.3025,0.042,-0.193
1.303,0.037000000000000005,-0.17300000000000001
1.3035,0.037000000000000005,-0.154
1.304,0.037000000000000005,-0.125
1.3045,0.037000000000000005,-0.095
1.305,0.032,-0.081
1.3055,0.032,-0.051
1.306,0.037000000000000005,-0.022000000000000002
1.3065,0.037000000000000005,-0.006999999999999999
1.307,0.037000000000000005,0.022000000000000002
1.3075,0.037000000000000005,0.055999999999999994
1.308,0.032,0.071
1.3085,0.037000000000000005,0.1
1.309,0.037000000000000005,0.125
1.3095,0.032,0.14400000000000002
1.31,0.037000000000000005,0.168
1.3105,0.042,0.198
1.311,0.037000000000000005,0.217
1.3115,0.037000000000000005,0.242
1.312,0.042,0.271
1.3125,0.037000000000000005,0.295
1.313,0.037000000000000005,0.31
1.3135,0.042,0.344
1.314,0.032,0.364
1.3145,0.037000000000000005,0.38799999999999996
1.315,0.037000000000000005,0.418
1.3155,0.037000000000000005,0.442
1.316,0.032,0.462
1.3165,0.037000000000000005,0.486
1.317,0.037000000000000005,0.515
1.3175,0.032,0.535
1.318,0.042,0.564
1.3185,0.042,0.593
1.319,0.032,0.613
1.3195,0.042,0.637
1.32,0.042,0.667
1.3205,0.037000000000000005,0.6859999999999999
1.321,0.042,0.711
1.3215,0.037000000000000005,0.74
1.322,0.037000000000000005,0.759
1.3225,0.037000000000000005,0.779
1.323,0.042,0.8079999999999999
1.3235,0.037000000000000005,0.833
1.324,0.037000000000000005,0.852
1.3245,0.037000000000000005,0.882
1.325,0.032,0.9059999999999999
1.3255,0.032,0.9259999999999999
1.326,0.037000000000000005,0.95
1.3265,0.037000000000000005,0.9840000000000001
1.327,0.032,0.9990000000000001
1.3275,0.037000000000000005,1.028
1.328,0.037000000000000005,1.057
1.3285,0.032,1.077
1.329,0.037000000000000005,1.101
1.3295,0.037000000000000005,1.131
1.33,0.032,1.15
1.3305,0.037000000000000005,1.175
1.331,0.042,1.204
1.3315,0.032,1.2229999999999999
1.332,0.037000000000000005,1.2429999999999999
1.3325,0.042,1.272
1.333,0.037000000000000005,1.297
1.3335,0.032,1.321
1.334,0.037000000000000005,1.3459999999999999
1.3345,0.037000000000000005,1.37
1.335,0.032,1.389
1.3355,0.037000000000000005,1.419
1.336,0.032,1.443
1.3365,0.027000000000000003,1.463
1.337,0.037000000000000005,1.4869999999999999
1.3375,0.037000000000000005,1.516
1.338,0.032,1.536
1.3385,0.037000000000000005,1.56
1.339,0.042,1.59
1.3395,0.032,1.609
1.34,0.042,1.6340000000000001
1.3405,0.037000000000000005,1.663
1.341,0.037000000000000005,1.683
1.3415,0.037000000000000005,1.7069999999999999
1.342,0.037000000000000005,1.7309999999999999
1.3425,0.032,1.756
1.343,0.037000000000000005,1.775
1.3435,0.042,1.805
1.344,0.037000000000000005,1.829
1.3445,0.032,1.849
1.345,0.037000000000000005,1.8730000000000002
1.3455,0.032,1.8969999999999998
1.346,0.032,1.922
1.3465,0.037000000000000005,1.9409999999999998
1.347,0.032,1.976
1.3475,0.032,1.995
1.348,0.042,2.02
1.3485,0.037000000000000005,2.044
1.349,0.032,2.063
1.3495,0.037000000000000005,2.093
1.35,0.042,2.117
1.3505,0.032,2.137
1.351,0.037000000000000005,2.156
1.3515,0.037000000000000005,2.186
1.352,0.032,2.21
1.3525,0.037000000000000005,2.23
1.353,0.037000000000000005,2.254
1.3535,0.032,2.278
1.354,0.037000000000000005,2.298
1.3545,0.042,2.327
1.355,0.032,2.347
1.3555,0.032,2.366
1.356,0.037000000000000005,2.391
1.3565,0.032,2.42
1.357,0.027000000000000003,2.44
1.3575,0.032,2.464
1.358,0.042,2.488
1.3585,0.032,2.513
1.359,0.032,2.537
1.3595,0.032,2.5669999999999997
1.36,0.032,2.5810000000000004
1.3605,0.037000000000000005,2.611
1.361,0.042,2.635
1.3615,0.032,2.654
1.362,0.032,2.674
1.3625,0.037000000000000005,2.698
1.363,0.037000000000000005,2.718
1.3635,0.032,2.737
1.364,0.032,2.767
1.3645,0.032,2.786
1.365,0.032,2.8110000000000004
1.3655,0.032,2.835
1.366,0.032,2.855
1.3665,0.027000000000000003,2.8739999999999997
1.367,0.037000000000000005,2.904
1.3675,0.032,2.9330000000000003
1.368,0.027000000000000003,2.947
1.3685,0.037000000000000005,2.977
1.369,0.037000000000000005,3.0010000000000003
1.3695,0.032,3.0210000000000004
1.37,0.032,3.04
1.3705,0.032,3.07
1.371,0.032,3.0839999999999996
1.3715,0.032,3.109
1.372,0.037000000000000005,3.133
1.3725,0.032,3.153
1.373,0.037000000000000005,3.1719999999999997
1.3735,0.037000000000000005,3.197
1.374,0.032,3.2260000000000004
1.3745,0.032,3.241
1.375,0.037000000000000005,3.265
1.3755,0.032,3.2889999999999997
1.376,0.032,3.304
1.3765,0.032,3.333
1.377,0.032,3.363
1.3775,0.027000000000000003,3.377
1.378,0.032,3.397
1.3785,0.032,3.426
1.379,0.032,3.446
1.3795,0.032,3.47
1.38,0.032,3.49
1.3805,0.032,3.514
1.381,0.037000000000000005,3.534
1.3815,0.037000000000000005,3.5580000000000003
1.382,0.032,3.5780000000000003
1.3825,0.037000000000000005,3.597
1.383,0.032,3.6210000000000004
1.3835,0.032,3.6460000000000004
1.384,0.032,3.661
1.3845,0.032,3.685
1.385,0.027000000000000003,3.7089999999999996
1.3855,0.027000000000000003,3.7239999999999998
1.386,0.027000000000000003,3.748
1.3865,0.032,3.778
1.387,0.022000000000000002,3.792
1.3875,0.032,3.8169999999999997
1.388,0.032,3.841
1.3885,0.027000000000000003,3.861
1.389,0.032,3.885
1.3895,0.032,3.91
1.39,0.027000000000000003,3.924
1.3905,0.032,3.9389999999999996
1.391,0.032,3.968
1.3915,0.032,3.998
1.392,0.027000000000000003,4.007
1.3925,0.032,4.032
1.393,0.032,4.051
1.3935,0.032,4.066
1.394,0.032,4.09
1.3945,0.027000000000000003,4.115
1.395,0.022000000000000002,4.129
1.3955,0.032,4.154
1.396,0.027000000000000003,4.178
1.3965,0.027000000000000003,4.1930000000000005
1.397,0.027000000000000003,4.217
1.3975,0.032,4.242
1.398,0.022000000000000002,4.261
1.3985,0.032,4.276
1.399,0.027000000000000003,4.3
1.3995,0.027000000000000003,4.325
1.4,0.032,4.3389999999999995
1.4005,0.037000000000000005,4.369
1.401,0.027000000000000003,4.388
1.4015,0.032,4.4030000000000005
1.402,0.037000000000000005,4.427
1.4025,0.027000000000000003,4.447
1.403,0.027000000000000003,4.462
1.4035,0.027000000000000003,4.486000000000001
1.404,0.027000000000000003,4.505
1.4045,0.032,4.52
1.405,0.027000000000000003,4.54
1.4055,0.027000000000000003,4.569
1.406,0.022000000000000002,4.579
1.4065,0.027000000000000003,4.603
1.407,0.027000000000000003,4.628
1.4075,0.022000000000000002,4.6419999999999995
1.408,0.027000000000000003,4.662
1.4085,0.027000000000000003,4.691
1.409,0.027000000000000003,4.706
1.4095,0.027000000000000003,4.725
1.41,0.027000000000000003,4.75
1.4105,0.027000000000000003,4.763999999999999
1.411,0.032,4.779
1.4115,0.032,4.808
1.412,0.027000000000000003,4.823
1.4125,0.027000000000000003,4.842
1.413,0.032,4.862
1.4135,0.027000000000000003,4.882
1.414,0.022000000000000002,4.896
1.4145,0.027000000000000003,4.916
1.415,0.027000000000000003,4.935
1.4155,0.022000000000000002,4.95
1.416,0.027000000000000003,4.974
1.4165,0.027000000000000003,4.999
1.417,0.017,5.004
1.4175,0.027000000000000003,5.023
1.418,0.027000000000000003,5.053
1.4185,0.022000000000000002,5.067
1.419,0.022000000000000002,5.087
1.4195,0.027000000000000003,5.111000000000001
1.42,0.022000000000000002,5.126
1.4205,0.027000000000000003,5.145
1.421,0.032,5.165
1.4215,0.027000000000000003,5.178999999999999
1.422,0.027000000000000003,5.189
1.4225,0.027000000000000003,5.218999999999999
1.423,0.022000000000000002,5.2379999999999995
1.4235,0.022000000000000002,5.247999999999999
1.424,0.027000000000000003,5.272
1.4245,0.027000000000000003,5.292000000000001
1.425,0.017,5.306
1.4255,0.022000000000000002,5.321000000000001
1.426,0.017,5.346
1.4265,0.022000000000000002,5.355
1.427,0.027000000000000003,5.38
1.4275,0.022000000000000002,5.404
1.428,0.022000000000000002,5.414
1.4285,0.027000000000000003,5.433
1.429,0.027000000000000003,5.452999999999999
1.4295,0.022000000000000002,5.473
1.43,0.022000000000000002,5.487
1.4305,0.022000000000000002,5.5120000000000005
1.431,0.022000000000000002,5.526
1.4315,0.022000000000000002,5.541
1.432,0.022000000000000002,5.551
1.4325,0.017,5.575
1.433,0.022000000000000002,5.59
1.4335,0.027000000000000003,5.609
1.434,0.022000000000000002,5.629
1.4345,0.022000000000000002,5.638999999999999
1.435,0.022000000000000002,5.6579999999999995
1.4355,0.017,5.678
1.436,0.017,5.687
1.4365,0.022000000000000002,5.712000000000001
1.437,0.022000000000000002,5.731
1.4375,0.017,5.7410000000000005
1.438,0.022000000000000002,5.761
1.4385,0.017,5.78
1.439,0.017,5.795
1.4395,0.022000000000000002,5.814
1.44,0.027000000000000003,5.829
1.4405,0.022000000000000002,5.843999999999999
1.441,0.022000000000000002,5.858
1.4415,0.027000000000000003,5.882999999999999
1.442,0.017,5.893
1.4425,0.022000000000000002,5.907
1.443,0.027000000000000003,5.9270000000000005
1.4435,0.017,5.946000000000001
1.444,0.022000000000000002,5.956
1.4445,0.022000000000000002,5.976
1.445,0.017,5.99
1.4455,0.017,6.01
1.446,0.022000000000000002,6.024
1.4465,0.017,6.039
1.447,0.017,6.053999999999999
1.4475,0.022000000000000002,6.068
1.448,0.017,6.087999999999999
1.4485,0.017,6.103
1.449,0.022000000000000002,6.117000000000001
1.4495,0.022000000000000002,6.1370000000000005
1.45,0.012,6.151
1.4505,0.022000000000000002,6.1610000000000005
1.451,0.027000000000000003,6.181
1.4515,0.017,6.2
1.452,0.022000000000000002,6.205
1.4525,0.022000000000000002,6.23
1.453,0.017,6.239
1.4535,0.017,6.249
1.454,0.022000000000000002,6.274
1.4545,0.017,6.2829999999999995
1.455,0.017,6.297999999999999
1.4555,0.022000000000000002,6.313
1.456,0.022000000000000002,6.332000000000001
1.4565,0.006999999999999999,6.3420000000000005
1.457,0.017,6.352
1.4575,0.017,6.376
1.458,0.012,6.381
1.4585,0.022000000000000002,6.4
1.459,0.012,6.42
1.4595,0.012,6.43
1.46,0.022000000000000002,6.444
1.4605,0.022000000000000002,6.4639999999999995
1.461,0.012,6.474
1.4615,0.017,6.4879999999999995
1.462,0.017,6.502999999999999
1.4625,0.012,6.513
1.463,0.017,6.523
1.4635,0.017,6.542000000000001
1.464,0.012,6.557
1.4645,0.017,6.567
1.465,0.017,6.586
1.4655,0.012,6.596
1.466,0.012,6.601
1.4665,0.012,6.62
1.467,0.012,6.64
1.4675,0.012,6.65
1.468,0.012,6.659
1.4685,0.017,6.678999999999999
1.469,0.012,6.684
1.4695,0.017,6.702999999999999
1.47,0.017,6.718
1.4705,0.012,6.728
1.471,0.017,6.742000000000001
1.4715,0.017,6.757000000000001
1.472,0.012,6.767
1.4725,0.012,6.767
1.473,0.017,6.7860000000000005
1.4735,0.012,6.806
1.474,0.012,6.816
1.4745,0.017,6.825
1.475,0.012,6.84
1.4755,0.012,6.845
1.476,0.012,6.864
1.4765,0.006999999999999999,6.869
1.477,0.006999999999999999,6.879
1.4775,0.012,6.894
1.478,0.012,6.912999999999999
1.4785,0.006999999999999999,6.922999999999999
1.479,0.012,6.933
1.4795,0.017,6.947
1.48,0.012,6.957000000000001
1.4805,0.006999999999999999,6.972
1.481,0.012,6.982
1.4815,0.006999999999999999,6.9910000000000005
1.482,0.012,7.001
1.4825,0.012,7.016
1.483,0.006999999999999999,7.026
1.4835,0.012,7.031000000000001
1.484,0.017,7.045
1.4845,0.012,7.055
1.485,0.012,7.06
1.4855,0.012,7.074
1.486,0.006999999999999999,7.0889999999999995
1.4865,0.002,7.093999999999999
1.487,0.012,7.109
1.4875,0.012,7.122999999999999
1.488,0.012,7.122999999999999
1.4885,0.012,7.143
1.489,0.006999999999999999,7.1579999999999995
1.4895,0.006999999999999999,7.162000000000001
1.49,0.006999999999999999,7.172000000000001
1.4905,0.006999999999999999,7.187
1.491,0.006999999999999999,7.192
1.4915,0.012,7.2010000000000005
1.492,0.006999999999999999,7.216
1.4925,0.002,7.221
1.493,0.006999999999999999,7.231
1.4935,0.012,7.245
1.494,0.006999999999999999,7.25
1.4945,0.006999999999999999,7.255
1.495,0.006999999999999999,7.265
1.4955,0.002,7.275
1.496,0.006999999999999999,7.284
1.4965,0.006999999999999999,7.294
1.497,0.002,7.303999999999999
1.4975,0.006999999999999999,7.309
1.498,0.012,7.324
1.4985,0.006999999999999999,7.337999999999999
1.499,0.006999999999999999,7.332999999999999
1.4995,0.012,7.353
1.5,0.006999999999999999,7.367999999999999
1.5005,0.002,7.367999999999999
1.501,0.006999999999999999,7.377000000000001
1.5015,0.006999999999999999,7.392
1.502,-0.002,7.397
1.5025,0.006999999999999999,7.402
1.503,0.006999999999999999,7.4110000000000005
1.5035,0.002,7.416
1.504,0.002,7.426
1.5045,0.002,7.436
1.505,0.002,7.441
1.5055,0.002,7.446000000000001
1.506,0.002,7.455
1.5065,0.002,7.465
1.507,0.002,7.47
1.5075,0.002,7.48
1.508,0.002,7.49
1.5085,-0.006999999999999999,7.495
1.509,0.002,7.499
1.5095,-0.002,7.513999999999999
1.51,-0.002,7.519
1.5105,0.006999999999999999,7.524
1.511,0.002,7.537999999999999
1.5115,-0.006999999999999999,7.542999999999999
1.512,-0.002,7.547999999999999
1.5125,-0.002,7.558
1.513,-0.002,7.558
1.5135,0.002,7.563
1.514,0.006999999999999999,7.5729999999999995
1.5145,-0.002,7.582000000000001
1.515,0.002,7.582000000000001
1.5155,0.002,7.597
1.516,-0.006999999999999999,7.602
1.5165,-0.002,7.602
1.517,0.002,7.612
1.5175,-0.002,7.621
1.518,-0.006999999999999999,7.626
1.5185,0.002,7.636
1.519,0.002,7.646
1.5195,-0.006999999999999999,7.646
1.52,-0.002,7.651
1.5205,0.002,7.665
1.521,-0.006999999999999999,7.6610000000000005
1.5215,0.002,7.67
1.522,0.002,7.68
1.5225,-0.006999999999999999,7.68
1.523,-0.002,7.685
1.5235,0.002,7.695
1.524,-0.002,7.7
1.5245,-0.002,7.7
1.525,-0.002,7.705
1.5255,-0.002,7.709
1.526,-0.006999999999999999,7.7139999999999995
1.5265,-0.002,7.724
1.527,-0.002,7.729
1.5275,-0.002,7.724
1.528,-0.002,7.739
1.5285,-0.002,7.744
1.529,-0.006999999999999999,7.744
1.5295,-0.002,7.752999999999999
1.53,-0.002,7.763
1.5305,-0.006999999999999999,7.757999999999999
1.531,-0.002,7.763
1.5315,0.002,7.773
1.532,-0.006999999999999999,7.778
1.5325,-0.002,7.773
1.533,-0.002,7.778
1.5335,-0.006999999999999999,7.7829999999999995
1.534,-0.002,7.787999999999999
1.5345,-0.002,7.792000000000001
1.535,-0.006999999999999999,7.797000000000001
1.5355,-0.002,7.797000000000001
1.536,-0.002,7.807
1.5365,-0.006999999999999999,7.8020000000000005
1.537,-0.006999999999999999,7.8020000000000005
1.5375,-0.002,7.817
1.538,-0.006999999999999999,7.822
1.5385,-0.002,7.817
1.539,-0.006999999999999999,7.827000000000001
1.5395,-0.002,7.836
1.54,-0.006999999999999999,7.832000000000001
1.5405,-0.002,7.836
1.541,-0.006999999999999999,7.846
1.5415,-0.006999999999999999,7.841
1.542,-0.002,7.846
1.5425,-0.002,7.851
1.543,-0.012,7.846
1.5435,-0.006999999999999999,7.851
1.544,-0.002,7.861000000000001
1.5445,-0.012,7.861000000000001
1.545,-0.006999999999999999,7.856
1.5455,-0.006999999999999999,7.861000000000001
1.546,-0.006999999999999999,7.8660000000000005
1.5465,-0.006999999999999999,7.861000000000001
1.547,-0.006999999999999999,7.8660000000000005
1.5475,-0.006999999999999999,7.871
1.548,-0.006999999999999999,7.871
1.5485,-0.002,7.88
1.549,-0.012,7.875
1.5495,-0.002,7.875
1.55,-0.006999999999999999,7.885
1.5505,-0.006999999999999999,7.895
1.551,-0.012,7.89
1.5515,-0.002,7.89
1.552,-0.006999999999999999,7.89
1.5525,-0.012,7.895
1.553,-0.006999999999999999,7.895
1.5535,-0.006999999999999999,7.895
1.554,-0.006999999999999999,7.895
1.5545,-0.006999999999999999,7.895
1.555,-0.002,7.9
1.5555,-0.012,7.9
1.556,-0.012,7.895
1.5565,-0.006999999999999999,7.9
1.557,-0.012,7.905
1.5575,-0.012,7.9
1.558,-0.012,7.9
1.5585,-0.012,7.9
1.559,-0.017,7.895
1.5595,-0.012,7.9
1.56,-0.012,7.9
1.5605,-0.017,7.895
1.561,-0.012,7.895
1.5615,-0.017,7.895
1.562,-0.022000000000000002,7.885
1.5625,-0.017,7.885
1.563,-0.012,7.885
1.5635,-0.017,7.885
1.564,-0.012,7.875
1.5645,-0.012,7.88
1.565,-0.017,7.875
1.5655,-0.017,7.871
1.566,-0.012,7.871
1.5665,-0.022000000000000002,7.8660000000000005
1.567,-0.017,7.861000000000001
1.5675,-0.012,7.8660000000000005
1.568,-0.017,7.861000000000001
1.5685,-0.022000000000000002,7.861000000000001
1.569,-0.012,7.861000000000001
1.5695,-0.017,7.856
1.57,-0.022000000000000002,7.856
1.5705,-0.017,7.856
1.571,-0.012,7.856
1.5715,-0.022000000000000002,7.846
1.572,-0.017,7.846
1.5725,-0.017,7.841
1.573,-0.022000000000000002,7.841
1.5735,-0.017,7.832000000000001
1.574,-0.012,7.836
1.5745,-0.022000000000000002,7.827000000000001
1.575,-0.017,7.817
1.5755,-0.012,7.822
1.576,-0.022000000000000002,7.812
1.5765,-0.022000000000000002,7.807
1.577,-0.017,7.807
1.5775,-0.017,7.807
1.578,-0.022000000000000002,7.8020000000000005
1.5785,-0.017,7.8020000000000005
1.579,-0.017,7.797000000000001
1.5795,-0.027000000000000003,7.787999999999999
1.58,-0.017,7.792000000000001
1.5805,-0.017,7.792000000000001
1.581,-0.022000000000000002,7.7829999999999995
1.5815,-0.017,7.778
1.582,-0.022000000000000002,7.778
1.5825,-0.027000000000000003,7.773
1.583,-0.022000000000000002,7.768
1.5835,-0.017,7.763
1.584,-0.022000000000000002,7.752999999999999
1.5845,-0.022000000000000002,7.747999999999999
1.585,-0.022000000000000002,7.747999999999999
1.5855,-0.022000000000000002,7.739
1.586,-0.022000000000000002,7.739
1.5865,-0.022000000000000002,7.734
1.587,-0.027000000000000003,7.724
1.5875,-0.022000000000000002,7.718999999999999
1.588,-0.017,7.718999999999999
1.5885,-0.022000000000000002,7.7139999999999995
1.589,-0.017,7.709
1.5895,-0.017,7.709
1.59,-0.022000000000000002,7.705
1.5905,-0.027000000000000003,7.695
1.591,-0.022000000000000002,7.69
1.5915,-0.022000000000000002,7.685
1.592,-0.027000000000000003,7.675
1.5925,-0.022000000000000002,7.67
1.593,-0.022000000000000002,7.67
1.5935,-0.027000000000000003,7.6610000000000005
1.594,-0.022000000000000002,7.656000000000001
1.5945,-0.017,7.651
1.595,-0.032,7.641
1.5955,-0.022000000000000002,7.631
1.596,-0.022000000000000002,7.631
1.5965,-0.027000000000000003,7.626
1.597,-0.022000000000000002,7.617000000000001
1.5975,-0.017,7.612
1.598,-0.027000000000000003,7.607
1.5985,-0.027000000000000003,7.597
1.599,-0.022000000000000002,7.602
1.5995,-0.027000000000000003,7.5920000000000005
1.6,-0.027000000000000003,7.577999999999999
1.6005,-0.017,7.577999999999999
1.601,-0.022000000000000002,7.577999999999999
1.6015,-0.027000000000000003,7.563
1.602,-0.022000000000000002,7.553
1.6025,-0.027000000000000003,7.547999999999999
1.603,-0.032,7.542999999999999
1.6035,-0.027000000000000003,7.534
1.604,-0.022000000000000002,7.534
1.6045,-0.027000000000000003,7.519
1.605,-0.027000000000000003,7.5089999999999995
1.6055,-0.022000000000000002,7.5089999999999995
1.606,-0.032,7.495
1.6065,-0.027000000000000003,7.48
1.607,-0.027000000000000003,7.485
1.6075,-0.032,7.475
1.608,-0.027000000000000003,7.46
1.6085,-0.027000000000000003,7.46
1.609,-0.027000000000000003,7.46
1.6095,-0.027000000000000003,7.441
1.61,-0.027000000000000003,7.436
1.6105,-0.027000000000000003,7.436
1.611,-0.032,7.421
1.6115,-0.022000000000000002,7.416
1.612,-0.032,7.4110000000000005
1.6125,-0.032,7.397
1.613,-0.027000000000000003,7.392
1.6135,-0.027000000000000003,7.3870000000000005
1.614,-0.032,7.372000000000001
1.6145,-0.027000000000000003,7.3629999999999995
1.615,-0.032,7.358
1.6155,-0.032,7.348
1.616,-0.032,7.337999999999999
1.6165,-0.027000000000000003,7.332999999999999
1.617,-0.032,7.319
1.6175,-0.032,7.303999999999999
1.618,-0.027000000000000003,7.303999999999999
1.6185,-0.032,7.294
1.619,-0.027000000000000003,7.289
1.6195,-0.027000000000000003,7.28
1.62,-0.027000000000000003,7.27
1.6205,-0.032,7.255
1.621,-0.027000000000000003,7.25
1.6215,-0.032,7.245
1.622,-0.037000000000000005,7.226
1.6225,-0.032,7.226
1.623,-0.032,7.216
1.6235,-0.037000000000000005,7.2010000000000005
1.624,-0.032,7.192
1.6245,-0.027000000000000003,7.182
1.625,-0.037000000000000005,7.172000000000001
1.6255,-0.032,7.1579999999999995
1.626,-0.032,7.153
1.6265,-0.037000000000000005,7.143
1.627,-0.037000000000000005,7.127999999999999
1.6275,-0.027000000000000003,7.122999999999999
1.628,-0.032,7.114
1.6285,-0.032,7.099
1.629,-0.032,7.093999999999999
1.6295,-0.032,7.084
1.63,-0.037000000000000005,7.07
1.6305,-0.032,7.065
1.631,-0.032,7.06
1.6315,-0.037000000000000005,7.04
1.632,-0.027000000000000003,7.035
1.6325,-0.037000000000000005,7.026
1.633,-0.037000000000000005,7.006
1.6335,-0.032,6.996
1.634,-0.037000000000000005,6.9910000000000005
1.6345,-0.037000000000000005,6.972
1.635,-0.032,6.957000000000001
1.6355,-0.032,6.952000000000001
1.636,-0.037000000000000005,6.938
1.6365,-0.032,6.922999999999999
1.637,-0.032,6.917999999999999
1.6375,-0.042,6.904
1.638,-0.032,6.894
1.6385,-0.037000000000000005,6.8839999999999995
1.639,-0.032,6.874
1.6395,-0.037000000000000005,6.855
1.64,-0.037000000000000005,6.85
1.6405,-0.037000000000000005,6.845
1.641,-0.037000000000000005,6.825
1.6415,-0.032,6.821000000000001
1.642,-0.032,6.806
1.6425,-0.042,6.7860000000000005
1.643,-0.037000000000000005,6.777
1.6435,-0.037000000000000005,6.772
1.644,-0.042,6.752000000000001
1.6445,-0.032,6.742000000000001
1.645,-0.037000000000000005,6.733
1.6455,-0.037000000000000005,6.712999999999999
1.646,-0.037000000000000005,6.702999999999999
1.6465,-0.037000000000000005,6.689
1.647,-0.042,6.678999999999999
1.6475,-0.037000000000000005,6.659
1.648,-0.032,6.659
1.6485,-0.042,6.645
1.649,-0.037000000000000005,6.625
1.6495,-0.032,6.615
1.65,-0.037000000000000005,6.606
1.6505,-0.042,6.586
1.651,-0.037000000000000005,6.5760000000000005
1.6515,-0.037000000000000005,6.562
1.652,-0.037000000000000005,6.547000000000001
1.6525,-0.037000000000000005,6.537000000000001
1.653,-0.042,6.523
1.6535,-0.046,6.507999999999999
1.654,-0.037000000000000005,6.492999999999999
1.6545,-0.037000000000000005,6.4879999999999995
1.655,-0.046,6.468999999999999
1.6555,-0.037000000000000005,6.454
1.656,-0.042,6.44
1.6565,-0.042,6.425
1.657,-0.042,6.41
1.6575,-0.037000000000000005,6.4
1.658,-0.042,6.381
1.6585,-0.042,6.361000000000001
1.659,-0.037000000000000005,6.357
1.6595,-0.042,6.3420000000000005
1.66,-0.042,6.327000000000001
1.6605,-0.037000000000000005,6.317
1.661,-0.042,6.303
1.6615,-0.037000000000000005,6.2829999999999995
1.662,-0.042,6.269
1.6625,-0.042,6.2589999999999995
1.663,-0.042,6.239
1.6635,-0.042,6.23
1.664,-0.042,6.22
1.6645,-0.046,6.19
1.665,-0.042,6.176
1.6655,-0.046,6.166
1.666,-0.046,6.147
1.6665,-0.042,6.1370000000000005
1.667,-0.037000000000000005,6.122000000000001
1.6675,-0.046,6.103
1.668,-0.042,6.093
1.6685,-0.037000000000000005,6.077999999999999
1.669,-0.046,6.063
1.6695,-0.042,6.044
1.67,-0.037000000000000005,6.034
1.6705,-0.042,6.02
1.671,-0.046,5.995
1.6715,-0.037000000000000005,5.98
1.672,-0.046,5.971
1.6725,-0.042,5.946000000000001
1.673,-0.042,5.937
1.6735,-0.046,5.922000000000001
1.674,-0.051,5.902
1.6745,-0.046,5.888
1.675,-0.042,5.872999999999999
1.6755,-0.051,5.853
1.676,-0.046,5.8389999999999995
1.6765,-0.046,5.829
1.677,-0.051,5.81
1.6775,-0.042,5.795
1.678,-0.046,5.78
1.6785,-0.042,5.761
1.679,-0.046,5.746
1.6795,-0.042,5.731
1.68,-0.051,5.712000000000001
1.6805,-0.042,5.687
1.681,-0.042,5.678
1.6815,-0.046,5.662999999999999
1.682,-0.046,5.638999999999999
1.6825,-0.042,5.629
1.683,-0.046,5.614
1.6835,-0.046,5.595
1.684,-0.046,5.58
1.6845,-0.046,5.56
1.685,-0.046,5.5360000000000005
1.6855,-0.042,5.526
1.686,-0.046,5.5120000000000005
1.6865,-0.051,5.492000000000001
1.687,-0.046,5.473
1.6875,-0.046,5.462999999999999
1.688,-0.051,5.438
1.6885,-0.046,5.419
1.689,-0.046,5.404
1.6895,-0.051,5.388999999999999
1.69,-0.046,5.375
1.6905,-0.042,5.355
1.691,-0.051,5.336
1.6915,-0.046,5.316
1.692,-0.046,5.3020000000000005
1.6925,-0.046,5.287000000000001
1.693,-0.051,5.257999999999999
1.6935,-0.046,5.247999999999999
1.694,-0.046,5.233
1.6945,-0.046,5.209
1.695,-0.046,5.189
1.6955,-0.051,5.178999999999999
1.696,-0.055999999999999994,5.155
1.6965,-0.051,5.14
1.697,-0.046,5.121
1.6975,-0.055999999999999994,5.101
1.698,-0.046,5.082
1.6985,-0.046,5.072
1.699,-0.051,5.053
1.6995,-0.046,5.0280000000000005
1.7,-0.046,5.013
1.7005,-0.051,4.994
1.701,-0.046,4.974
1.7015,-0.046,4.96
1.702,-0.055999999999999994,4.94
1.7025,-0.051,4.916
1.703,-0.046,4.901
1.7035,-0.051,4.886
1.704,-0.051,4.857
1.7045,-0.051,4.842
1.705,-0.051,4.828
1.7055,-0.051,4.803
1.706,-0.051,4.784
1.7065,-0.051,4.774
1.707,-0.055999999999999994,4.745
1.7075,-0.046,4.73
1.708,-0.051,4.716
1.7085,-0.055999999999999994,4.691
1.709,-0.051,4.676
1.7095,-0.046,4.657
1.71,-0.055999999999999994,4.637
1.7105,-0.051,4.618
1.711,-0.046,4.598
1.7115,-0.051,4.579
1.712,-0.051,4.553999999999999
1.7125,-0.051,4.54
1.713,-0.051,4.515
1.7135,-0.051,4.496
1.714,-0.046,4.481
1.7145,-0.055999999999999994,4.462
1.715,-0.055999999999999994,4.4319999999999995
1.7155,-0.051,4.418
1.716,-0.051,4.4030000000000005
1.7165,-0.051,4.379
1.717,-0.051,4.359
1.7175,-0.051,4.343999999999999
1.718,-0.055999999999999994,4.32
1.7185,-0.051,4.3
1.719,-0.051,4.2860000000000005
1.7195,-0.055999999999999994,4.261
1.72,-0.051,4.242
1.7205,-0.046,4.2219999999999995
1.721,-0.055999999999999994,4.198
1.7215,-0.051,4.183
1.722,-0.051,4.159
1.7225,-0.055999999999999994,4.144
1.723,-0.055999999999999994,4.115
1.7235,-0.051,4.1
1.724,-0.055999999999999994,4.081
1.7245,-0.051,4.051
1.725,-0.051,4.037
1.7255,-0.055999999999999994,4.0169999999999995
1.726,-0.055999999999999994,3.9930000000000003
1.7265,-0.055999999999999994,3.9730000000000003
1.727,-0.055999999999999994,3.958
1.7275,-0.055999999999999994,3.929
1.728,-0.051,3.915
1.7285,-0.055999999999999994,3.895
1.729,-0.061,3.8710000000000004
1.7295,-0.051,3.8510000000000004
1.73,-0.051,3.832
1.7305,-0.055999999999999994,3.812
1.731,-0.051,3.7880000000000003
1.7315,-0.051,3.7680000000000002
1.732,-0.055999999999999994,3.739
1.7325,-0.055999999999999994,3.7239999999999998
1.733,-0.051,3.7
1.7335,-0.055999999999999994,3.68
1.734,-0.055999999999999994,3.656
1.7345,-0.051,3.636
1.735,-0.055999999999999994,3.617
1.7355,-0.055999999999999994,3.5869999999999997
1.736,-0.051,3.573
1.7365,-0.055999999999999994,3.5580000000000003
1.737,-0.055999999999999994,3.5239999999999996
1.7375,-0.055999999999999994,3.509
1.738,-0.055999999999999994,3.49
1.7385,-0.055999999999999994,3.465
1.739,-0.051,3.446
1.7395,-0.055999999999999994,3.426
1.74,-0.061,3.397
1.7405,-0.051,3.3819999999999997
1.741,-0.055999999999999994,3.363
1.7415,-0.061,3.333
1.742,-0.051,3.3139999999999996
1.7425,-0.055999999999999994,3.299
1.743,-0.055999999999999994,3.275
1.7435,-0.055999999999999994,3.245
1.744,-0.055999999999999994,3.2310000000000003
1.7445,-0.055999999999999994,3.2060000000000004
1.745,-0.055999999999999994,3.177
1.7455,-0.055999999999999994,3.162
1.746,-0.055999999999999994,3.1430000000000002
1.7465,-0.061,3.114
1.747,-0.055999999999999994,3.0989999999999998
1.7475,-0.061,3.074
1.748,-0.055999999999999994,3.05
1.7485,-0.055999999999999994,3.035
1.749,-0.061,3.011
1.7495,-0.061,2.9819999999999998
1.75,-0.051,2.9619999999999997
1.7505,-0.055999999999999994,2.947
1.751,-0.066,2.9130000000000003
1.7515,-0.055999999999999994,2.8989999999999996
1.752,-0.055999999999999994,2.8789999999999996
1.7525,-0.061,2.855
1.753,-0.055999999999999994,2.825
1.7535,-0.055999999999999994,2.8110000000000004
1.754,-0.061,2.786
1.7545,-0.055999999999999994,2.7569999999999997
1.755,-0.055999999999999994,2.742
1.7555,-0.061,2.713
1.756,-0.055999999999999994,2.6889999999999996
1.7565,-0.055999999999999994,2.6689999999999996
1.757,-0.061,2.65
1.7575,-0.061,2.62
1.758,-0.055999999999999994,2.6060000000000003
1.7585,-0.055999999999999994,2.5860000000000003
1.759,-0.061,2.557
1.7595,-0.055999999999999994,2.532
1.76,-0.055999999999999994,2.523
1.7605,-0.061,2.4930000000000003
1.761,-0.061,2.474
1.7615,-0.055999999999999994,2.454
1.762,-0.066,2.42
1.7625,-0.061,2.405
1.763,-0.055999999999999994,2.386
1.7635,-0.061,2.3569999999999998
1.764,-0.055999999999999994,2.332
1.7645,-0.061,2.313
1.765,-0.061,2.283
1.7655,-0.055999999999999994,2.2640000000000002
1.766,-0.055999999999999994,2.244
1.7665,-0.061,2.22
1.767,-0.061,2.19
1.7675,-0.055999999999999994,2.176
1.768,-0.061,2.151
1.7685,-0.055999999999999994,2.122
1.769,-0.055999999999999994,2.103
1.7695,-0.061,2.083
1.77,-0.061,2.0540000000000003
1.7705,-0.055999999999999994,2.0340000000000003
1.771,-0.061,2.01
1.7715,-0.061,1.985
1.772,-0.055999999999999994,1.966
1.7725,-0.061,1.946
1.773,-0.066,1.912
1.7735,-0.061,1.893
1.774,-0.061,1.8730000000000002
1.7745,-0.066,1.844
1.775,-0.061,1.824
1.7755,-0.061,1.8
1.776,-0.066,1.775
1.7765,-0.061,1.751
1.777,-0.055999999999999994,1.7309999999999999
1.7775,-0.061,1.702
1.778,-0.055999999999999994,1.683
1.7785,-0.055999999999999994,1.6680000000000001
1.779,-0.061,1.639
1.7795,-0.061,1.609
1.78,-0.055999999999999994,1.595
1.7805,-0.061,1.565
1.781,-0.055999999999999994,1.541
1.7815,-0.055999999999999994,1.526
1.782,-0.061,1.4969999999999999
1.7825,-0.066,1.4680000000000002
1.783,-0.055999999999999994,1.4480000000000002
1.7835,-0.061,1.429
1.784,-0.066,1.399
1.7845,-0.061,1.38
1.785,-0.066,1.355
1.7855,-0.066,1.331
1.786,-0.061,1.306
1.7865,-0.061,1.287
1.787,-0.066,1.258
1.7875,-0.055999999999999994,1.2329999999999999
1.788,-0.061,1.219
1.7885,-0.061,1.194
1.789,-0.061,1.165
1.7895,-0.055999999999999994,1.145
1.79,-0.061,1.121
1.7905,-0.055999999999999994,1.092
1.791,-0.055999999999999994,1.077
1.7915,-0.061,1.048
1.792,-0.055999999999999994,1.018
1.7925,-0.055999999999999994,1.004
1.793,-0.061,0.9790000000000001
1.7935,-0.066,0.945
1.794,-0.055999999999999994,0.93
1.7945,-0.061,0.9059999999999999
1.795,-0.061,0.872
1.7955,-0.061,0.852
1.796,-0.066,0.838
1.7965,-0.066,0.8079999999999999
1.797,-0.061,0.789
1.7975,-0.061,0.764
1.798,-0.066,0.74
1.7985,-0.055999999999999994,0.716
1.799,-0.055999999999999994,0.696
1.7995,-0.061,0.672
1.8,-0.055999999999999994,0.647
1.8005,-0.061,0.623
1.801,-0.061,0.598
1.8015,-0.061,0.574
1.802,-0.061,0.5489999999999999
1.8025,-0.061,0.525
1.803,-0.061,0.496
1.8035,-0.061,0.47600000000000003
1.804,-0.066,0.452
1.8045,-0.061,0.42200000000000004
1.805,-0.061,0.40299999999999997
1.8055,-0.066,0.38299999999999995
1.806,-0.061,0.349
1.8065,-0.061,0.335
1.807,-0.061,0.305
1.8075,-0.066,0.281
1.808,-0.061,0.261
1.8085,-0.061,0.242
1.809,-0.066,0.212
1.8095,-0.055999999999999994,0.193
1.81,-0.055999999999999994,0.17300000000000001
1.8105,-0.061,0.14400000000000002
1.811,-0.055999999999999994,0.12
1.8115,-0.055999999999999994,0.1
1.812,-0.066,0.066
1.8125,-0.061,0.051
1.813,-0.055999999999999994,0.022000000000000002
1.8135,-0.061,-0.006999999999999999
1.814,-0.061,-0.032
1.8145,-0.055999999999999994,-0.051
1.815,-0.066,-0.076
1.8155,-0.061,-0.105
1.816,-0.055999999999999994,-0.12
1.8165,-0.066,-0.14400000000000002
1.817,-0.061,-0.17300000000000001
1.8175,-0.055999999999999994,-0.193
1.818,-0.066,-0.212
1.8185,-0.061,-0.247
1.819,-0.061,-0.266
1.8195,-0.061,-0.28600000000000003
1.82,-0.066,-0.315
1.8205,-0.061,-0.335
1.821,-0.061,-0.354
1.8215,-0.066,-0.38799999999999996
1.822,-0.061,-0.408
1.8225,-0.061,-0.42700000000000005
1.823,-0.066,-0.457
1.8235,-0.061,-0.48100000000000004
1.824,-0.066,-0.501
1.8245,-0.066,-0.53
1.825,-0.061,-0.5539999999999999
1.8255,-0.061,-0.574
1.826,-0.066,-0.603
1.8265,-0.061,-0.628
1.827,-0.055999999999999994,-0.642
1.8275,-0.061,-0.6759999999999999
1.828,-0.061,-0.696
1.8285,-0.055999999999999994,-0.72
1.829,-0.066,-0.74
1.8295,-0.066,-0.774
1.83,-0.061,-0.789
1.8305,-0.066,-0.813
1.831,-0.061,-0.838
1.8315,-0.055999999999999994,-0.862
1.832,-0.061,-0.882
1.8325,-0.066,-0.9109999999999999
1.833,-0.061,-0.93
1.8335,-0.066,-0.96
1.834,-0.066,-0.9840000000000001
1.8345,-0.061,-1.0090000000000001
1.835,-0.061,-1.028
1.8355,-0.066,-1.057
1.836,-0.061,-1.077
1.8365,-0.061,-1.101
1.837,-0.061,-1.131
1.8375,-0.061,-1.15
1.838,-0.061,-1.17
1.8385,-0.066,-1.199
1.839,-0.055999999999999994,-1.219
1.8395,-0.061,-1.238
1.84,-0.066,-1.2670000000000001
1.8405,-0.061,-1.2919999999999998
1.841,-0.055999999999999994,-1.311
1.8415,-0.061,-1.341
1.842,-0.066,-1.365
1.8425,-0.051,-1.385
1.843,-0.061,-1.409
1.8435,-0.061,-1.433
1.844,-0.055999999999999994,-1.453
1.8445,-0.061,-1.482
1.845,-0.066,-1.507
1.8455,-0.061,-1.531
1.846,-0.066,-1.551
1.8465,-0.061,-1.58
1.847,-0.061,-1.604
1.8475,-0.061,-1.619
1.848,-0.066,-1.6480000000000001
1.8485,-0.061,-1.6680000000000001
1.849,-0.061,-1.692
1.8495,-0.066,-1.722
1.85,-0.055999999999999994,-1.736
1.8505,-0.055999999999999994,-1.756
1.851,-0.066,-1.79
1.8515,-0.061,-1.814
1.852,-0.061,-1.829
1.8525,-0.061,-1.858
1.853,-0.061,-1.883
1.8535,-0.055999999999999994,-1.9069999999999998
1.854,-0.066,-1.932
1.8545,-0.055999999999999994,-1.9509999999999998
1.855,-0.055999999999999994,-1.976
1.8555,-0.066,-2.005
1.856,-0.061,-2.029
1.8565,-0.061,-2.044
1.857,-0.061,-2.068
1.8575,-0.066,-2.0980000000000003
1.858,-0.055999999999999994,-2.117
1.8585,-0.061,-2.137
1.859,-0.055999999999999994,-2.166
1.8595,-0.055999999999999994,-2.181
1.86,-0.061,-2.205
1.8605,-0.066,-2.234
1.861,-0.055999999999999994,-2.254
1.8615,-0.061,-2.274
1.862,-0.061,-2.303
1.8625,-0.061,-2.327
1.863,-0.061,-2.342
1.8635,-0.061,-2.376
1.864,-0.055999999999999994,-2.396
1.8645,-0.061,-2.415
1.865,-0.061,-2.444
1.8655,-0.061,-2.464
1.866,-0.055999999999999994,-2.484
1.8665,-0.066,-2.513
1.867,-0.061,-2.532
1.8675,-0.055999999999999994,-2.552
1.868,-0.061,-2.576
1.8685,-0.055999999999999994,-2.6010000000000004
1.869,-0.055999999999999994,-2.625
1.8695,-0.061,-2.645
1.87,-0.061,-2.6689999999999996
1.8705,-0.055999999999999994,-2.6889999999999996
1.871,-0.061,-2.708
1.8715,-0.055999999999999994,-2.737
1.872,-0.061,-2.762
1.8725,-0.061,-2.781
1.873,-0.066,-2.8110000000000004
1.8735,-0.055999999999999994,-2.825
1.874,-0.061,-2.85
1.8745,-0.066,-2.8789999999999996
1.875,-0.061,-2.8939999999999997
1.8755,-0.061,-2.918
1.876,-0.066,-2.947
1.8765,-0.061,-2.9619999999999997
1.877,-0.061,-2.987
1.8775,-0.055999999999999994,-3.011
1.878,-0.061,-3.035
1.8785,-0.055999999999999994,-3.05
1.879,-0.066,-3.0789999999999997
1.8795,-0.055999999999999994,-3.0989999999999998
1.88,-0.055999999999999994,-3.114
1.8805,-0.061,-3.1430000000000002
1.881,-0.055999999999999994,-3.1719999999999997
1.8815,-0.051,-3.182
1.882,-0.055999999999999994,-3.2110000000000003
1.8825,-0.055999999999999994,-3.2310000000000003
1.883,-0.055999999999999994,-3.255
1.8835,-0.061,-3.275
1.884,-0.061,-3.299
1.8845,-0.055999999999999994,-3.319
1.885,-0.061,-3.343
1.8855,-0.061,-3.3680000000000003
1.886,-0.061,-3.387
1.8865,-0.055999999999999994,-3.407
1.887,-0.066,-3.431
1.8875,-0.055999999999999994,-3.455
1.888,-0.055999999999999994,-3.47
1.8885,-0.061,-3.495
1.889,-0.055999999999999994,-3.514
1.8895,-0.051,-3.534
1.89,-0.066,-3.563
1.8905,-0.055999999999999994,-3.582
1.891,-0.055999999999999994,-3.602
1.8915,-0.061,-3.6260000000000003
1.892,-0.055999999999999994,-3.6510000000000002
1.8925,-0.055999999999999994,-3.67
1.893,-0.055999999999999994,-3.69
1.8935,-0.055999999999999994,-3.714
1.894,-0.055999999999999994,-3.734
1.8945,-0.061,-3.758
1.895,-0.061,-3.783
1.8955,-0.055999999999999994,-3.7969999999999997
1.896,-0.055999999999999994,-3.822
1.8965,-0.055999999999999994,-3.846
1.897,-0.055999999999999994,-3.866
1.8975,-0.055999999999999994,-3.88
1.898,-0.066,-3.91
1.8985,-0.055999999999999994,-3.924
1.899,-0.055999999999999994,-3.944
1.8995,-0.061,-3.9730000000000003
1.9,-0.055999999999999994,-3.9930000000000003
1.9005,-0.055999999999999994,-4.007
1.901,-0.055999999999999994,-4.037
1.9015,-0.055999999999999994,-4.051
1.902,-0.051,-4.071000000000001
1.9025,-0.061,-4.095
1.903,-0.055999999999999994,-4.115
1.9035,-0.051,-4.1339999999999995
1.904,-0.061,-4.159
1.9045,-0.051,-4.183
1.905,-0.055999999999999994,-4.198
1.9055,-0.055999999999999994,-4.2219999999999995
1.906,-0.055999999999999994,-4.242
1.9065,-0.051,-4.256
1.907,-0.055999999999999994,-4.281000000000001
1.9075,-0.055999999999999994,-4.305
1.908,-0.051,-4.32
1.9085,-0.055999999999999994,-4.3389999999999995
1.909,-0.055999999999999994,-4.364
1.9095,-0.051,-4.383
1.91,-0.055999999999999994,-4.393
1.9105,-0.061,-4.422
1.911,-0.055999999999999994,-4.442
1.9115,-0.055999999999999994,-4.462
1.912,-0.061,-4.486000000000001
1.9125,-0.055999999999999994,-4.501
1.913,-0.055999999999999994,-4.52
1.9135,-0.061,-4.545
1.914,-0.055999999999999994,-4.559
1.9145,-0.055999999999999994,-4.579
1.915,-0.055999999999999994,-4.6080000000000005
1.9155,-0.051,-4.623
1.916,-0.051,-4.637
1.9165,-0.061,-4.662
1.917,-0.055999999999999994,-4.681
1.9175,-0.051,-4.696000000000001
1.918,-0.055999999999999994,-4.72
1.9185,-0.051,-4.74
1.919,-0.051,-4.7589999999999995
1.9195,-0.055999999999999994,-4.774
1.92,-0.055999999999999994,-4.803
1.9205,-0.046,-4.813
1.921,-0.051,-4.833
1.9215,-0.046,-4.857
1.922,-0.051,-4.877
1.9225,-0.051,-4.886
1.923,-0.055999999999999994,-4.916
1.9235,-0.051,-4.926
1.924,-0.055999999999999994,-4.95
1.9245,-0.055999999999999994,-4.974
1.925,-0.051,-4.984
1.9255,-0.051,-5.004
1.926,-0.055999999999999994,-5.0280000000000005
1.9265,-0.055999999999999994,-5.043
1.927,-0.051,-5.062
1.9275,-0.055999999999999994,-5.082
1.928,-0.051,-5.101
1.9285,-0.046,-5.1160000000000005
1.929,-0.055999999999999994,-5.136
1.9295,-0.051,-5.155
1.93,-0.046,-5.165
1.9305,-0.051,-5.189
1.931,-0.051,-5.2139999999999995
1.9315,-0.046,-5.223
1.932,-0.051,-5.242999999999999
1.9325,-0.051,-5.263
1.933,-0.051,-5.282
1.9335,-0.051,-5.292000000000001
1.934,-0.055999999999999994,-5.321000000000001
1.9345,-0.046,-5.331
1.935,-0.051,-5.35
1.9355,-0.055999999999999994,-5.375
1.936,-0.051,-5.388999999999999
1.9365,-0.055999999999999994,-5.399
1.937,-0.055999999999999994,-5.4239999999999995
1.9375,-0.051,-5.438
1.938,-0.046,-5.457999999999999
1.9385,-0.051,-5.477
1.939,-0.051,-5.492000000000001
1.9395,-0.046,-5.507000000000001
1.94,-0.051,-5.526
1.9405,-0.051,-5.546
1.941,-0.046,-5.56
1.9415,-0.051,-5.575
1.942,-0.051,-5.6
1.9425,-0.051,-5.614
1.943,-0.051,-5.629
1.9435,-0.046,-5.648
1.944,-0.046,-5.6579999999999995
1.9445,-0.051,-5.678
1.945,-0.051,-5.702000000000001
1.9455,-0.051,-5.712000000000001
1.946,-0.051,-5.731
1.9465,-0.055999999999999994,-5.751
1.947,-0.046,-5.766
1.9475,-0.046,-5.78
1.948,-0.051,-5.8
1.9485,-0.051,-5.814
1.949,-0.046,-5.829
1.9495,-0.051,-5.843999999999999
1.95,-0.046,-5.858
1.9505,-0.046,-5.872999999999999
1.951,-0.051,-5.893
1.9515,-0.046,-5.912000000000001
1.952,-0.042,-5.922000000000001
1.9525,-0.051,-5.937
1.953,-0.046,-5.966
1.9535,-0.046,-5.971
1.954,-0.046,-5.99
1.9545,-0.046,-6.005
1.955,-0.046,-6.015
1.9555,-0.046,-6.034
1.956,-0.055999999999999994,-6.053999999999999
1.9565,-0.046,-6.068
1.957,-0.046,-6.077999999999999
1.9575,-0.046,-6.103
1.958,-0.046,-6.112
1.9585,-0.046,-6.122000000000001
1.959,-0.046,-6.147
1.9595,-0.042,-6.156000000000001
1.96,-0.042,-6.166
1.9605,-0.046,-6.186
1.961,-0.046,-6.2
1.9615,-0.042,-6.21
1.962,-0.046,-6.23
1.9625,-0.046,-6.249
1.963,-0.042,-6.2589999999999995
1.9635,-0.046,-6.278
1.964,-0.042,-6.292999999999999
1.9645,-0.046,-6.308
1.965,-0.046,-6.322
1.9655,-0.042,-6.3420000000000005
1.966,-0.037000000000000005,-6.352
1.9665,-0.046,-6.361000000000001
1.967,-0.051,-6.376
1.9675,-0.046,-6.391
1.968,-0.042,-6.405
1.9685,-0.046,-6.42
1.969,-0.042,-6.43
1.9695,-0.046,-6.44
1.97,-0.046,-6.4639999999999995
1.9705,-0.042,-6.468999999999999
1.971,-0.037000000000000005,-6.484
1.9715,-0.046,-6.497999999999999
1.972,-0.042,-6.513
1.9725,-0.037000000000000005,-6.523
1.973,-0.046,-6.542000000000001
1.9735,-0.046,-6.5520000000000005
1.974,-0.037000000000000005,-6.562
1.9745,-0.042,-6.581
1.975,-0.042,-6.591
1.9755,-0.037000000000000005,-6.606
1.976,-0.042,-6.62
1.9765,-0.042,-6.635
1.977,-0.037000000000000005,-6.64
1.9775,-0.042,-6.659
1.978,-0.042,-6.669
1.9785,-0.042,-6.678999999999999
1.979,-0.037000000000000005,-6.689
1.9795,-0.042,-6.712999999999999
1.98,-0.037000000000000005,-6.718
1.9805,-0.037000000000000005,-6.723
1.981,-0.046,-6.747000000000001
1.9815,-0.037000000000000005,-6.752000000000001
1.982,-0.042,-6.767
1.9825,-0.042,-6.777
1.983,-0.037000000000000005,-6.791
1.9835,-0.037000000000000005,-6.801
1.984,-0.042,-6.816
1.9845,-0.037000000000000005,-6.825
1.985,-0.037000000000000005,-6.835
1.9855,-0.042,-6.85
1.986,-0.037000000000000005,-6.86
1.9865,-0.032,-6.869
1.987,-0.042,-6.8839999999999995
1.9875,-0.042,-6.899
1.988,-0.032,-6.899
1.9885,-0.037000000000000005,-6.912999999999999
1.989,-0.042,-6.928
1.9895,-0.037000000000000005,-6.938
1.99,-0.037000000000000005,-6.947
1.9905,-0.037000000000000005,-6.962000000000001
1.991,-0.037000000000000005,-6.962000000000001
1.9915,-0.037000000000000005,-6.977
1.992,-0.037000000000000005,-6.9910000000000005
1.9925,-0.037000000000000005,-7.001
1.993,-0.037000000000000005,-7.006
1.9935,-0.042,-7.026
1.994,-0.037000000000000005,-7.031000000000001
1.9945,-0.037000000000000005,-7.04
1.995,-0.037000000000000005,-7.05
1.9955,-0.042,-7.065
1.996,-0.032,-7.07
1.9965,-0.042,-7.084
1.997,-0.032,-7.093999999999999
1.9975,-0.037000000000000005,-7.099
1.998,-0.042,-7.114
1.9985,-0.032,-7.122999999999999
1.999,-0.027000000000000003,-7.127999999999999
1.9995,-0.037000000000000005,-7.143
2.0,-0.032,-7.1579999999999995
2.0005,-0.032,-7.1579999999999995
2.001,-0.037000000000000005,-7.167000000000001
2.0015,-0.032,-7.182
2.002,-0.032,-7.187
2.0025,-0.032,-7.192
2.003,-0.037000000000000005,-7.206
2.0035,-0.032,-7.216
2.004,-0.032,-7.221
2.0045,-0.037000000000000005,-7.236000000000001
2.005,-0.037000000000000005,-7.2410000000000005
2.0055,-0.037000000000000005,-7.245
2.006,-0.037000000000000005,-7.26
2.0065,-0.037000000000000005,-7.265
2.007,-0.032,-7.275
2.0075,-0.037000000000000005,-7.284
2.008,-0.032,-7.294
2.0085,-0.032,-7.294
2.009,-0.037000000000000005,-7.309
2.0095,-0.032,-7.314
2.01,-0.027000000000000003,-7.324
2.0105,-0.037000000000000005,-7.332999999999999
2.011,-0.032,-7.337999999999999
2.0115,-0.027000000000000003,-7.337999999999999
2.012,-0.032,-7.358
2.0125,-0.027000000000000003,-7.358
2.013,-0.027000000000000003,-7.367999999999999
2.0135,-0.032,-7.372000000000001
2.014,-0.027000000000000003,-7.3870000000000005
2.0145,-0.027000000000000003,-7.392
2.015,-0.032,-7.402
2.0155,-0.032,-7.4110000000000005
2.016,-0.027000000000000003,-7.4110000000000005
2.0165,-0.032,-7.421
2.017,-0.032,-7.436
2.0175,-0.032,-7.436
2.018,-0.032,-7.441
2.0185,-0.032,-7.4510000000000005
2.019,-0.027000000000000003,-7.4510000000000005
2.0195,-0.027000000000000003,-7.455
2.02,-0.037000000000000005,-7.47
2.0205,-0.027000000000000003,-7.47
2.021,-0.027000000000000003,-7.475
2.0215,-0.032,-7.485
2.022,-0.027000000000000003,-7.495
2.0225,-0.027000000000000003,-7.495
2.023,-0.032,-7.504
2.0235,-0.032,-7.513999999999999
2.024,-0.027000000000000003,-7.513999999999999
2.0245,-0.032,-7.524
2.025,-0.027000000000000003,-7.529
2.0255,-0.027000000000000003,-7.534
2.026,-0.027000000000000003,-7.542999999999999
2.0265,-0.027000000000000003,-7.547999999999999
2.027,-0.027000000000000003,-7.553
2.0275,-0.027000000000000003,-7.553
2.028,-0.027000000000000003,-7.568
2.0285,-0.022000000000000002,-7.568
2.029,-0.027000000000000003,-7.568
2.0295,-0.022000000000000002,-7.582000000000001
2.03,-0.022000000000000002,-7.577999999999999
2.0305,-0.022000000000000002,-7.582000000000001
2.031,-0.022000000000000002,-7.5920000000000005
2.0315,-0.022000000000000002,-7.597
2.032,-0.022000000000000002,-7.597
2.0325,-0.027000000000000003,-7.607
2.033,-0.022000000000000002,-7.612
2.0335,-0.022000000000000002,-7.607
2.034,-0.027000000000000003,-7.621
2.0345,-0.022000000000000002,-7.621
2.035,-0.027000000000000003,-7.621
2.0355,-0.032,-7.631
2.036,-0.022000000000000002,-7.636
2.0365,-0.022000000000000002,-7.636
2.037,-0.027000000000000003,-7.646
2.0375,-0.027000000000000003,-7.651
2.038,-0.022000000000000002,-7.651
2.0385,-0.027000000000000003,-7.656000000000001
2.039,-0.022000000000000002,-7.6610000000000005
2.0395,-0.017,-7.6610000000000005
2.04,-0.027000000000000003,-7.665
2.0405,-0.022000000000000002,-7.67
2.041,-0.012,-7.665
2.0415,-0.017,-7.67
2.042,-0.022000000000000002,-7.685
2.0425,-0.017,-7.68
2.043,-0.022000000000000002,-7.68
2.0435,-0.017,-7.69
2.044,-0.017,-7.695
2.0445,-0.022000000000000002,-7.695
2.045,-0.027000000000000003,-7.7
2.0455,-0.022000000000000002,-7.7
2.046,-0.022000000000000002,-7.695
2.0465,-0.027000000000000003,-7.709
2.047,-0.022000000000000002,-7.709
2.0475,-0.017,-7.709
2.048,-0.027000000000000003,-7.7139999999999995
2.0485,-0.022000000000000002,-7.7139999999999995
2.049,-0.017,-7.7139999999999995
2.0495,-0.027000000000000003,-7.718999999999999
2.05,-0.017,-7.718999999999999
2.0505,-0.017,-7.718999999999999
2.051,-0.022000000000000002,-7.724
2.0515,-0.017,-7.729
2.052,-0.022000000000000002,-7.729
2.0525,-0.022000000000000002,-7.734
2.053,-0.017,-7.734
2.0535,-0.017,-7.734
2.054,-0.022000000000000002,-7.739
2.0545,-0.022000000000000002,-7.744
2.055,-0.017,-7.744
2.0555,-0.022000000000000002,-7.744
2.056,-0.017,-7.747999999999999
2.0565,-0.017,-7.747999999999999
2.057,-0.017,-7.747999999999999
2.0575,-0.022000000000000002,-7.752999999999999
2.058,-0.012,-7.747999999999999
2.0585,-0.017,-7.744
2.059,-0.022000000000000002,-7.744
2.0595,-0.012,-7.744
2.06,-0.012,-7.734
2.0605,-0.017,-7.739
2.061,-0.006999999999999999,-7.739
2.0615,-0.006999999999999999,-7.734
2.062,-0.012,-7.734
2.0625,-0.012,-7.729
2.063,-0.006999999999999999,-7.729
2.0635,-0.017,-7.734
2.064,-0.012,-7.729
2.0645,-0.006999999999999999,-7.729
2.065,-0.012,-7.724
2.0655,-0.012,-7.729
2.066,-0.012,-7.724
2.0665,-0.017,-7.718999999999999
2.067,-0.012,-7.7139999999999995
2.0675,-0.006999999999999999,-7.7139999999999995
2.068,-0.012,-7.705
2.0685,-0.012,-7.7139999999999995
2.069,-0.006999999999999999,-7.705
2.0695,-0.006999999999999999,-7.695
2.07,-0.012,-7.7
2.0705,-0.002,-7.695
2.071,-0.006999999999999999,-7.69
2.0715,-0.012,-7.69
2.072,-0.006999999999999999,-7.69
2.0725,-0.006999999999999999,-7.68
2.073,-0.017,-7.68
2.0735,-0.012,-7.675
2.074,-0.006999999999999999,-7.675
2.0745,-0.012,-7.67
2.075,-0.006999999999999999,-7.665
2.0755,-0.006999999999999999,-7.6610000000000005
2.076,-0.012,-7.6610000000000005
2.0765,-0.006999999999999999,-7.665
2.077,-0.002,-7.651
2.0775,-0.006999999999999999,-7.651
2.078,-0.002,-7.646
2.0785,-0.002,-7.646
2.079,-0.006999999999999999,-7.631
2.0795,-0.012,-7.636
2.08,-0.006999999999999999,-7.626
2.0805,-0.006999999999999999,-7.621
2.081,-0.006999999999999999,-7.621
2.0815,-0.006999999999999999,-7.617000000000001
2.082,-0.006999999999999999,-7.607
2.0825,-0.006999999999999999,-7.607
2.083,-0.006999999999999999,-7.602
2.0835,-0.002,-7.5920000000000005
2.084,-0.006999999999999999,-7.587000000000001
2.0845,-0.002,-7.5920000000000005
2.085,-0.002,-7.577999999999999
2.0855,-0.006999999999999999,-7.577999999999999
2.086,-0.006999999999999999,-7.5729999999999995
2.0865,-0.002,-7.563
2.087,-0.006999999999999999,-7.563
2.0875,-0.006999999999999999,-7.563
2.088,-0.002,-7.547999999999999
2.0885,-0.006999999999999999,-7.542999999999999
2.089,-0.006999999999999999,-7.542999999999999
2.0895,-0.002,-7.529
2.09,-0.002,-7.519
2.0905,-0.006999999999999999,-7.524
2.091,-0.002,-7.5089999999999995
2.0915,-0.006999999999999999,-7.499
2.092,-0.012,-7.504
2.0925,-0.002,-7.495
2.093,-0.002,-7.49
2.0935,-0.006999999999999999,-7.485
2.094,-0.002,-7.48
2.0945,-0.002,-7.47
2.095,-0.006999999999999999,-7.465
2.0955,-0.002,-7.455
2.096,-0.002,-7.4510000000000005
2.0965,-0.002,-7.446000000000001
2.097,-0.006999999999999999,-7.441
2.0975,-0.002,-7.431
2.098,-0.006999999999999999,-7.416
2.0985,0.002,-7.416
2.099,-0.002,-7.4110000000000005
2.0995,-0.002,-7.397
2.1,-0.002,-7.392
2.1005,0.002,-7.382000000000001
2.101,0.002,-7.372000000000001
2.1015,-0.006999999999999999,-7.367999999999999
2.102,-0.002,-7.358
2.1025,-0.002,-7.353
2.103,-0.002,-7.348
2.1035,-0.002,-7.337999999999999
2.104,0.002,-7.324
2.1045,-0.006999999999999999,-7.324
2.105,0.002,-7.314
2.1055,-0.002,-7.2989999999999995
2.106,-0.002,-7.294
2.1065,-0.002,-7.289
2.107,0.002,-7.28
2.1075,-0.002,-7.27
2.108,-0.002,-7.265
2.1085,0.006999999999999999,-7.25
2.109,-0.006999999999999999,-7.245
2.1095,0.002,-7.245
2.11,0.006999999999999999,-7.226
2.1105,-0.002,-7.216
2.111,0.002,-7.211
2.1115,0.006999999999999999,-7.197
2.112,0.002,-7.187
2.1125,-0.002,-7.187
2.113,0.002,-7.167000000000001
2.1135,0.002,-7.1579999999999995
2.114,-0.002,-7.1579999999999995
2.1145,0.002,-7.143
2.115,0.002,-7.127999999999999
2.1155,-0.006999999999999999,-7.127999999999999
2.116,0.002,-7.114
2.1165,0.002,-7.099
2.117,0.002,-7.093999999999999
2.1175,0.002,-7.0889999999999995
2.118,0.002,-7.07
2.1185,0.002,-7.065
2.119,0.002,-7.05
2.1195,0.012,-7.035
2.12,0.002,-7.031000000000001
2.1205,0.002,-7.021
2.121,0.012,-7.006
2.1215,0.006999999999999999,-6.996
2.122,0.002,-6.9910000000000005
2.1225,0.006999999999999999,-6.972
2.123,0.006999999999999999,-6.957000000000001
2.1235,0.002,-6.952000000000001
2.124,0.006999999999999999,-6.943
2.1245,0.006999999999999999,-6.928
2.125,0.002,-6.928
2.1255,0.012,-6.912999999999999
2.126,0.006999999999999999,-6.894
2.1265,-0.002,-6.888999999999999
2.127,0.006999999999999999,-6.874
2.1275,0.006999999999999999,-6.86
2.128,0.002,-6.85
2.1285,0.006999999999999999,-6.84
2.129,0.012,-6.825
2.1295,0.012,-6.816
2.13,0.006999999999999999,-6.806
2.1305,0.012,-6.7860000000000005
2.131,0.006999999999999999,-6.777
2.1315,0.012,-6.772
2.132,0.012,-6.752000000000001
2.1325,0.006999999999999999,-6.742000000000001
2.133,0.006999999999999999,-6.737
2.1335,0.012,-6.718
2.134,0.012,-6.6979999999999995
2.1345,0.002,-6.694
2.135,0.012,-6.684
2.1355,0.006999999999999999,-6.664
2.136,0.006999999999999999,-6.659
2.1365,0.012,-6.64
2.137,0.012,-6.625
2.1375,0.006999999999999999,-6.62
2.138,0.012,-6.601
2.1385,0.017,-6.586
2.139,0.012,-6.571000000000001
2.1395,0.012,-6.567
2.14,0.012,-6.547000000000001
2.1405,0.006999999999999999,-6.532
2.141,0.012,-6.518
2.1415,0.012,-6.502999999999999
2.142,0.006999999999999999,-6.492999999999999
2.1425,0.006999999999999999,-6.484
2.143,0.017,-6.4639999999999995
2.1435,0.012,-6.449
2.144,0.006999999999999999,-6.44
2.1445,0.012,-6.42
2.145,0.012,-6.405
2.1455,0.006999999999999999,-6.396
2.146,0.012,-6.376
2.1465,0.017,-6.361000000000001
2.147,0.012,-6.352
2.1475,0.012,-6.337000000000001
2.148,0.017,-6.317
2.1485,0.006999999999999999,-6.303
2.149,0.012,-6.292999999999999
2.1495,0.022000000000000002,-6.274
2.15,0.012,-6.2589999999999995
2.1505,0.012,-6.244
2.151,0.017,-6.225
2.1515,0.017,-6.21
2.152,0.012,-6.2
2.1525,0.017,-6.181
2.153,0.017,-6.166
2.1535,0.017,-6.1610000000000005
2.154,0.017,-6.132000000000001
2.1545,0.012,-6.122000000000001
2.155,0.006999999999999999,-6.107
2.1555,0.017,-6.093
2.156,0.017,-6.0729999999999995
2.1565,0.012,-6.063
2.157,0.022000000000000002,-6.0489999999999995
2.1575,0.022000000000000002,-6.029
2.158,0.012,-6.01
2.1585,0.017,-5.995
2.159,0.022000000000000002,-5.976
2.1595,0.017,-5.966
2.16,0.017,-5.9510000000000005
2.1605,0.022000000000000002,-5.9270000000000005
2.161,0.017,-5.912000000000001
2.1615,0.022000000000000002,-5.897
2.162,0.017,-5.882999999999999
2.1625,0.022000000000000002,-5.858
2.163,0.017,-5.849
2.1635,0.022000000000000002,-5.829
2.164,0.017,-5.81
2.1645,0.012,-5.8
2.165,0.022000000000000002,-5.78
2.1655,0.017,-5.761
2.166,0.012,-5.746
2.1665,0.017,-5.731
2.167,0.017,-5.712000000000001
2.1675,0.022000000000000002,-5.697
2.168,0.022000000000000002,-5.683
2.1685,0.022000000000000002,-5.6579999999999995
2.169,0.022000000000000002,-5.643
2.1695,0.022000000000000002,-5.629
2.17,0.022000000000000002,-5.6
2.1705,0.017,-5.59
2.171,0.022000000000000002,-5.58
2.1715,0.027000000000000003,-5.551
2.172,0.017,-5.5360000000000005
2.1725,0.017,-5.521
2.173,0.022000000000000002,-5.502000000000001
2.1735,0.022000000000000002,-5.482
2.174,0.017,-5.468
2.1745,0.022000000000000002,-5.4479999999999995
2.175,0.022000000000000002,-5.428999999999999
2.1755,0.017,-5.414
2.176,0.022000000000000002,-5.394
2.1765,0.022000000000000002,-5.375
2.177,0.017,-5.36
2.1775,0.022000000000000002,-5.341
2.178,0.027000000000000003,-5.316
2.1785,0.022000000000000002,-5.3020000000000005
2.179,0.022000000000000002,-5.282
2.1795,0.022000000000000002,-5.263
2.18,0.017,-5.242999999999999
2.1805,0.022000000000000002,-5.228
2.181,0.027000000000000003,-5.209
2.1815,0.022000000000000002,-5.189
2.182,0.022000000000000002,-5.175
2.1825,0.027000000000000003,-5.15
2.183,0.022000000000000002,-5.126
2.1835,0.022000000000000002,-5.1160000000000005
2.184,0.022000000000000002,-5.096
2.1845,0.022000000000000002,-5.077
2.185,0.022000000000000002,-5.062
2.1855,0.022000000000000002,-5.043
2.186,0.027000000000000003,-5.018
2.1865,0.022000000000000002,-5.004
2.187,0.022000000000000002,-4.979
2.1875,0.032,-4.96
2.188,0.022000000000000002,-4.94
2.1885,0.022000000000000002,-4.93
2.189,0.022000000000000002,-4.906000000000001
2.1895,0.022000000000000002,-4.882
2.19,0.027000000000000003,-4.867
2.1905,0.027000000000000003,-4.842
2.191,0.022000000000000002,-4.823
2.1915,0.022000000000000002,-4.808
2.192,0.027000000000000003,-4.784
2.1925,0.022000000000000002,-4.7589999999999995
2.193,0.017,-4.755
2.1935,0.027000000000000003,-4.725
2.194,0.027000000000000003,-4.706
2.1945,0.017,-4.691
2.195,0.022000000000000002,-4.672
2.1955,0.027000000000000003,-4.6419999999999995
2.196,0.022000000000000002,-4.628
2.1965,0.027000000000000003,-4.6080000000000005
2.197,0.022000000000000002,-4.579
2.1975,0.027000000000000003,-4.564
2.198,0.027000000000000003,-4.545
2.1985,0.027000000000000003,-4.525
2.199,0.022000000000000002,-4.501
2.1995,0.027000000000000003,-4.481
2.2,0.032,-4.462
2.2005,0.022000000000000002,-4.437
2.201,0.027000000000000003,-4.422
2.2015,0.027000000000000003,-4.398
2.202,0.027000000000000003,-4.369
2.2025,0.022000000000000002,-4.359
2.203,0.027000000000000003,-4.335
2.2035,0.027000000000000003,-4.31
2.204,0.022000000000000002,-4.295
2.2045,0.027000000000000003,-4.271
2.205,0.027000000000000003,-4.252
2.2055,0.027000000000000003,-4.232
2.206,0.032,-4.208
2.2065,0.032,-4.188
2.207,0.027000000000000003,-4.168
2.2075,0.032,-4.144
2.208,0.032,-4.125
2.2085,0.027000000000000003,-4.105
2.209,0.027000000000000003,-4.085
2.2095,0.032,-4.056
2.21,0.027000000000000003,-4.037
2.2105,0.027000000000000003,-4.022
2.211,0.037000000000000005,-3.9930000000000003
2.2115,0.032,-3.968
2.212,0.027000000000000003,-3.9539999999999997
2.2125,0.032,-3.924
2.213,0.027000000000000003,-3.905
2.2135,0.022000000000000002,-3.885
2.214,0.027000000000000003,-3.866
2.2145,0.032,-3.841
2.215,0.022000000000000002,-3.827
2.2155,0.027000000000000003,-3.802
2.216,0.032,-3.778
2.2165,0.027000000000000003,-3.758
2.217,0.032,-3.734
2.2175,0.037000000000000005,-3.7089999999999996
2.218,0.027000000000000003,-3.69
2.2185,0.027000000000000003,-3.67
2.219,0.032,-3.641
2.2195,0.027000000000000003,-3.617
2.22,0.027000000000000003,-3.602
2.2205,0.032,-3.5780000000000003
2.221,0.032,-3.553
2.2215,0.027000000000000003,-3.534
2.222,0.032,-3.509
2.2225,0.032,-3.485
2.223,0.027000000000000003,-3.465
2.2235,0.032,-3.446
2.224,0.032,-3.4160000000000004
2.2245,0.027000000000000003,-3.397
2.225,0.032,-3.372
2.2255,0.027000000000000003,-3.3480000000000003
2.226,0.032,-3.333
2.2265,0.032,-3.3089999999999997
2.227,0.037000000000000005,-3.284
2.2275,0.032,-3.265
2.228,0.032,-3.245
2.2285,0.037000000000000005,-3.2110000000000003
2.229,0.032,-3.1919999999999997
2.2295,0.032,-3.177
2.23,0.037000000000000005,-3.1430000000000002
2.2305,0.032,-3.1180000000000003
2.231,0.037000000000000005,-3.1039999999999996
2.2315,0.032,-3.0789999999999997
2.232,0.032,-3.05
2.2325,0.027000000000000003,-3.035
2.233,0.032,-3.0060000000000002
2.2335,0.032,-2.9819999999999998
2.234,0.032,-2.9619999999999997
2.2345,0.032,-2.938
2.235,0.032,-2.918
2.2355,0.027000000000000003,-2.8939999999999997
2.236,0.032,-2.8739999999999997
2.2365,0.032,-2.845
2.237,0.027000000000000003,-2.821
2.2375,0.032,-2.801
2.238,0.037000000000000005,-2.772
2.2385,0.032,-2.752
2.239,0.027000000000000003,-2.733
2.2395,0.037000000000000005,-2.7030000000000003
2.24,0.032,-2.679
2.2405,0.032,-2.659
2.241,0.037000000000000005,-2.63
2.2415,0.032,-2.611
2.242,0.032,-2.5860000000000003
2.2425,0.037000000000000005,-2.562
2.243,0.032,-2.537
2.2435,0.027000000000000003,-2.523
2.244,0.037000000000000005,-2.4930000000000003
2.2445,0.032,-2.474
2.245,0.027000000000000003,-2.449
2.2455,0.032,-2.42
2.246,0.042,-2.396
2.2465,0.027000000000000003,-2.381
2.247,0.032,-2.352
2.2475,0.037000000000000005,-2.322
2.248,0.037000000000000005,-2.303
2.2485,0.037000000000000005,-2.283
2.249,0.037000000000000005,-2.259
2.2495,0.032,-2.23
2.25,0.032,-2.21
2.2505,0.037000000000000005,-2.186
2.251,0.032,-2.161
2.2515,0.032,-2.142
2.252,0.037000000000000005,-2.112
2.2525,0.037000000000000005,-2.083
2.253,0.027000000000000003,-2.068
2.2535,0.037000000000000005,-2.044
2.254,0.032,-2.01
2.2545,0.027000000000000003,-1.995
2.255,0.037000000000000005,-1.9709999999999999
2.2555,0.032,-1.9409999999999998
2.256,0.032,-1.9269999999999998
2.2565,0.032,-1.8969999999999998
2.257,0.037000000000000005,-1.8730000000000002
2.2575,0.032,-1.849
2.258,0.037000000000000005,-1.829
2.2585,0.037000000000000005,-1.8
2.259,0.032,-1.77
2.2595,0.032,-1.756
2.26,0.037000000000000005,-1.726
2.2605,0.037000000000000005,-1.702
2.261,0.037000000000000005,-1.683
2.2615,0.037000000000000005,-1.653
2.262,0.037000000000000005,-1.629
2.2625,0.032,-1.604
2.263,0.037000000000000005,-1.58
2.2635,0.037000000000000005,-1.551
2.264,0.032,-1.531
2.2645,0.037000000000000005,-1.5119999999999998
2.265,0.037000000000000005,-1.482
2.2655,0.032,-1.463
2.266,0.037000000000000005,-1.433
2.2665,0.037000000000000005,-1.4040000000000001
2.267,0.032,-1.385
2.2675,0.032,-1.37
2.268,0.037000000000000005,-1.3359999999999999
2.2685,0.032,-1.311
2.269,0.032,-1.2919999999999998
2.2695,0.042,-1.2670000000000001
2.27,0.042,-1.238
2.2705,0.037000000000000005,-1.214
2.271,0.037000000000000005,-1.189
2.2715,0.037000000000000005,-1.165
2.272,0.032,-1.145
2.2725,0.037000000000000005,-1.121
2.273,0.037000000000000005,-1.092
2.2735,0.032,-1.072
2.274,0.037000000000000005,-1.043
2.2745,0.037000000000000005,-1.023
2.275,0.032,-0.9990000000000001
2.2755,0.032,-0.9740000000000001
2.276,0.037000000000000005,-0.945
2.2765,0.032,-0.9259999999999999
2.277,0.037000000000000005,-0.9009999999999999
2.2775,0.042,-0.872
2.278,0.032,-0.847
2.2785,0.037000000000000005,-0.823
2.279,0.042,-0.799
2.2795,0.037000000000000005,-0.769
2.28,0.037000000000000005,-0.755
2.2805,0.037000000000000005,-0.72
2.281,0.042,-0.691
2.2815,0.042,-0.6759999999999999
2.282,0.037000000000000005,-0.652
2.2825,0.037000000000000005,-0.623
2.283,0.032,-0.603
2.2835,0.037000000000000005,-0.579
2.284,0.037000000000000005,-0.545
2.2845,0.032,-0.525
2.285,0.037000000000000005,-0.505
2.2855,0.042,-0.47600000000000003
2.286,0.032,-0.452
2.2865,0.037000000000000005,-0.43700000000000006
2.287,0.037000000000000005,-0.40299999999999997
2.2875,0.037000000000000005,-0.379
2.288,0.037000000000000005,-0.354
2.2885,0.042,-0.33
2.289,0.032,-0.305
2.2895,0.042,-0.28600000000000003
2.29,0.042,-0.256
2.2905,0.037000000000000005,-0.22699999999999998
2.291,0.037000000000000005,-0.20800000000000002
2.2915,0.037000000000000005,-0.183
2.292,0.037000000000000005,-0.154
2.2925,0.037000000000000005,-0.134
2.293,0.037000000000000005,-0.11
2.2935,0.042,-0.081
2.294,0.032,-0.066
2.2945,0.037000000000000005,-0.042
2.295,0.037000000000000005,-0.012
2.2955,0.032,0.012
2.296,0.037000000000000005,0.037000000000000005
2.2965,0.037000000000000005,0.061
2.297,0.032,0.085
2.2975,0.037000000000000005,0.11
2.298,0.037000000000000005,0.134
2.2985,0.037000000000000005,0.159
2.299,0.037000000000000005,0.188
2.2995,0.042,0.212
2.3,0.032,0.237
2.3005,0.037000000000000005,0.256
2.301,0.042,0.28600000000000003
2.3015,0.037000000000000005,0.31
2.302,0.037000000000000005,0.33
2.3025,0.042,0.359
2.303,0.037000000000000005,0.38799999999999996
2.3035,0.032,0.40299999999999997
2.304,0.037000000000000005,0.43200000000000005
2.3045,0.037000000000000005,0.462
2.305,0.032,0.47600000000000003
2.3055,0.037000000000000005,0.501
2.306,0.037000000000000005,0.53
2.3065,0.032,0.5489999999999999
2.307,0.032,0.574
2.3075,0.042,0.608
2.308,0.032,0.628
2.3085,0.032,0.652
2.309,0.037000000000000005,0.6809999999999999
2.3095,0.037000000000000005,0.701
2.31,0.037000000000000005,0.72
2.3105,0.042,0.75
2.311,0.037000000000000005,0.779
2.3115,0.032,0.794
2.312,0.037000000000000005,0.823
2.3125,0.037000000000000005,0.847
2.313,0.032,0.867
2.3135,0.037000000000000005,0.8959999999999999
2.314,0.037000000000000005,0.9259999999999999
2.3145,0.027000000000000003,0.94
2.315,0.037000000000000005,0.9690000000000001
2.3155,0.037000000000000005,0.9940000000000001
2.316,0.032,1.013
2.3165,0.037000000000000005,1.043
2.317,0.042,1.067
2.3175,0.032,1.092
2.318,0.037000000000000005,1.1159999999999999
2.3185,0.042,1.14
2.319,0.037000000000000005,1.165
2.3195,0.037000000000000005,1.1840000000000002
2.32,0.037000000000000005,1.214
2.3205,0.032,1.2429999999999999
2.321,0.037000000000000005,1.263
2.3215,0.037000000000000005,1.287
2.322,0.037000000000000005,1.306
2.3225,0.037000000000000005,1.331
2.323,0.037000000000000005,1.36
2.3235,0.037000000000000005,1.385
2.324,0.032,1.4040000000000001
2.3245,0.037000000000000005,1.429
2.325,0.032,1.463
2.3255,0.032,1.4769999999999999
2.326,0.037000000000000005,1.5019999999999998
2.3265,0.037000000000000005,1.531
2.327,0.032,1.551
2.3275,0.037000000000000005,1.575
2.328,0.037000000000000005,1.6
2.3285,0.032,1.624
2.329,0.037000000000000005,1.6480000000000001
2.3295,0.042,1.6780000000000002
2.33,0.032,1.6969999999999998
2.3305,0.032,1.7169999999999999
2.331,0.042,1.746
2.3315,0.037000000000000005,1.77
2.332,0.032,1.78
2.3325,0.042,1.819
2.333,0.032,1.839
2.3335,0.037000000000000005,1.8630000000000002
2.334,0.037000000000000005,1.8880000000000001
2.3345,0.032,1.912
2.335,0.032,1.932
2.3355,0.037000000000000005,1.956
2.336,0.032,1.99
2.3365,0.032,2.0
2.337,0.032,2.029
2.3375,0.037000000000000005,2.0540000000000003
2.338,0.032,2.0780000000000003
2.3385,0.032,2.0980000000000003
2.339,0.032,2.1319999999999997
2.3395,0.037000000000000005,2.147
2.34,0.037000000000000005,2.176
2.3405,0.037000000000000005,2.2
2.341,0.032,2.22
2.3415,0.037000000000000005,2.239
2.342,0.037000000000000005,2.269
2.3425,0.037000000000000005,2.293
2.343,0.032,2.3080000000000003
2.3435,0.037000000000000005,2.342
2.344,0.032,2.3609999999999998
2.3445,0.032,2.376
2.345,0.037000000000000005,2.405
2.3455,0.032,2.43
2.346,0.032,2.449
2.3465,0.037000000000000005,2.479
2.347,0.037000000000000005,2.503
2.3475,0.032,2.523
2.348,0.032,2.5469999999999997
2.3485,0.032,2.576
2.349,0.032,2.596
2.3495,0.037000000000000005,2.615
2.35,0.037000000000000005,2.645
2.3505,0.032,2.6639999999999997
2.351,0.037000000000000005,2.6889999999999996
2.3515,0.042,2.713
2.352,0.032,2.737
2.3525,0.037000000000000005,2.752
2.353,0.037000000000000005,2.7769999999999997
2.3535,0.032,2.801
2.354,0.032,2.821
2.3545,0.042,2.85
2.355,0.027000000000000003,2.8689999999999998
2.3555,0.032,2.889
2.356,0.037000000000000005,2.9130000000000003
2.3565,0.032,2.938
2.357,0.032,2.957
2.3575,0.032,2.987
2.358,0.032,3.011
2.3585,0.027000000000000003,3.031
2.359,0.037000000000000005,3.055
2.3595,0.037000000000000005,3.0839999999999996
2.36,0.032,3.0989999999999998
2.3605,0.032,3.123
2.361,0.032,3.153
2.3615,0.032,3.167
2.362,0.037000000000000005,3.187
2.3625,0.037000000000000005,3.216
2.363,0.032,3.236
2.3635,0.032,3.255
2.364,0.037000000000000005,3.28
2.3645,0.032,3.299
2.365,0.027000000000000003,3.319
2.3655,0.032,3.343
2.366,0.027000000000000003,3.3680000000000003
2.3665,0.032,3.387
2.367,0.032,3.411
2.3675,0.032,3.4360000000000004
2.368,0.027000000000000003,3.451
2.3685,0.032,3.48
2.369,0.037000000000000005,3.509
2.3695,0.027000000000000003,3.5239999999999996
2.37,0.032,3.548
2.3705,0.037000000000000005,3.5780000000000003
2.371,0.027000000000000003,3.592
2.3715,0.032,3.617
2.372,0.032,3.636
2.3725,0.027000000000000003,3.656
2.373,0.032,3.675
2.3735,0.037000000000000005,3.7
2.374,0.027000000000000003,3.719
2.3745,0.032,3.734
2.375,0.032,3.763
2.3755,0.027000000000000003,3.783
2.376,0.027000000000000003,3.802
2.3765,0.032,3.832
2.377,0.032,3.8510000000000004
2.3775,0.032,3.866
2.378,0.032,3.895
2.3785,0.027000000000000003,3.915
2.379,0.032,3.9339999999999997
2.3795,0.032,3.958
2.38,0.027000000000000003,3.988
2.3805,0.027000000000000003,4.002
2.381,0.032,4.027
2.3815,0.032,4.046
2.382,0.027000000000000003,4.061
2.3825,0.032,4.085
2.383,0.032,4.11
2.3835,0.022000000000000002,4.125
2.384,0.032,4.144
2.3845,0.032,4.168
2.385,0.027000000000000003,4.188
2.3855,0.027000000000000003,4.203
2.386,0.032,4.232
2.3865,0.027000000000000003,4.252
2.387,0.027000000000000003,4.271
2.3875,0.037000000000000005,4.295
2.388,0.027000000000000003,4.31
2.3885,0.032,4.33
2.389,0.027000000000000003,4.359
2.3895,0.027000000000000003,4.374
2.39,0.027000000000000003,4.388
2.3905,0.032,4.418
2.391,0.032,4.442
2.3915,0.022000000000000002,4.457
2.392,0.027000000000000003,4.471
2.3925,0.032,4.505
2.393,0.022000000000000002,4.515
2.3935,0.027000000000000003,4.535
2.394,0.027000000000000003,4.559
2.3945,0.022000000000000002,4.574
2.395,0.027000000000000003,4.593
2.3955,0.032,4.618
2.396,0.027000000000000003,4.632
2.3965,0.027000000000000003,4.652
2.397,0.027000000000000003,4.676
2.3975,0.022000000000000002,4.691
2.398,0.027000000000000003,4.716
2.3985,0.032,4.735
2.399,0.027000000000000003,4.755
2.3995,0.027000000000000003,4.769
2.4,0.032,4.794
2.4005,0.027000000000000003,4.8180000000000005
2.401,0.027000000000000003,4.828
2.4015,0.027000000000000003,4.852
2.402,0.027000000000000003,4.877
2.4025,0.022000000000000002,4.891
2.403,0.027000000000000003,4.9110000000000005
2.4035,0.027000000000000003,4.93
2.404,0.022000000000000002,4.945
2.4045,0.027000000000000003,4.965
2.405,0.022000000000000002,4.984
2.4055,0.017,4.999
2.406,0.022000000000000002,5.018
2.4065,0.027000000000000003,5.043
2.407,0.022000000000000002,5.0569999999999995
2.4075,0.022000000000000002,5.077
2.408,0.027000000000000003,5.096
2.4085,0.022000000000000002,5.1160000000000005
2.409,0.027000000000000003,5.131
2.4095,0.032,5.155
2.41,0.022000000000000002,5.17
2.4105,0.027000000000000003,5.189
2.411,0.032,5.2139999999999995
2.4115,0.022000000000000002,5.233
2.412,0.022000000000000002,5.2379999999999995
2.4125,0.027000000000000003,5.263
2.413,0.022000000000000002,5.277
2.4135,0.022000000000000002,5.297000000000001
2.414,0.022000000000000002,5.316
2.4145,0.027000000000000003,5.336
2.415,0.017,5.35
2.4155,0.027000000000000003,5.37
2.416,0.022000000000000002,5.394
2.4165,0.022000000000000002,5.399
2.417,0.022000000000000002,5.4239999999999995
2.4175,0.027000000000000003,5.4479999999999995
2.418,0.022000000000000002,5.457999999999999
2.4185,0.022000000000000002,5.477
2.419,0.027000000000000003,5.497000000000001
2.4195,0.022000000000000002,5.5120000000000005
2.42,0.022000000000000002,5.531000000000001
2.4205,0.027000000000000003,5.551
2.421,0.022000000000000002,5.565
2.4215,0.027000000000000003,5.58
2.422,0.022000000000000002,5.6
2.4225,0.022000000000000002,5.619
2.423,0.022000000000000002,5.629
2.4235,0.022000000000000002,5.653
2.424,0.017,5.672999999999999
2.4245,0.017,5.683
2.425,0.022000000000000002,5.707000000000001
2.4255,0.017,5.722
2.426,0.012,5.731
2.4265,0.022000000000000002,5.751
2.427,0.022000000000000002,5.775
2.4275,0.017,5.79
2.428,0.022000000000000002,5.805
2.4285,0.022000000000000002,5.819
2.429,0.017,5.8389999999999995
2.4295,0.022000000000000002,5.853
2.43,0.022000000000000002,5.872999999999999
2.4305,0.017,5.888
2.431,0.022000000000000002,5.902
2.4315,0.027000000000000003,5.922000000000001
2.432,0.017,5.941
2.4325,0.022000000000000002,5.946000000000001
2.433,0.022000000000000002,5.966
2.4335,0.022000000000000002,5.99
2.434,0.017,5.995
2.4345,0.022000000000000002,6.015
2.435,0.017,6.034
2.4355,0.017,6.044
2.436,0.017,6.059
2.4365,0.017,6.077999999999999
2.437,0.012,6.093
2.4375,0.022000000000000002,6.117000000000001
2.438,0.017,6.132000000000001
2.4385,0.017,6.1370000000000005
2.439,0.022000000000000002,6.156000000000001
2.4395,0.017,6.176
2.44,0.017,6.186
2.4405,0.022000000000000002,6.205
2.441,0.027000000000000003,6.22
2.4415,0.017,6.234
2.442,0.022000000000000002,6.244
2.4425,0.022000000000000002,6.269
2.443,0.017,6.278
2.4435,0.017,6.287999999999999
2.444,0.017,6.308
2.4445,0.012,6.322
2.445,0.017,6.337000000000001
2.4455,0.017,6.352
2.446,0.012,6.3660000000000005
2.4465,0.012,6.376
2.447,0.017,6.396
2.4475,0.017,6.41
2.448,0.012,6.425
2.4485,0.017,6.44
2.449,0.022000000000000002,6.454
2.4495,0.012,6.4639999999999995
2.45,0.012,6.484
2.4505,0.022000000000000002,6.497999999999999
2.451,0.017,6.513
2.4515,0.017,6.518
2.452,0.017,6.537000000000001
2.4525,0.017,6.5520000000000005
2.453,0.017,6.557
2.4535,0.017,6.5760000000000005
2.454,0.012,6.586
2.4545,0.012,6.596
2.455,0.012,6.615
2.4555,0.012,6.63
2.456,0.012,6.635
2.4565,0.012,6.654
2.457,0.012,6.6739999999999995
2.4575,0.012,6.678999999999999
2.458,0.012,6.694
2.4585,0.012,6.707999999999999
2.459,0.012,6.723
2.4595,0.017,6.733
2.46,0.012,6.747000000000001
2.4605,0.012,6.7620000000000005
2.461,0.017,6.777
2.4615,0.017,6.7860000000000005
2.462,0.012,6.796
2.4625,0.012,6.801
2.463,0.017,6.821000000000001
2.4635,0.012,6.835
2.464,0.012,6.84
2.4645,0.012,6.855
2.465,0.012,6.874
2.4655,0.006999999999999999,6.879
2.466,0.012,6.894
2.4665,0.012,6.904
2.467,0.006999999999999999,6.912999999999999
2.4675,0.012,6.928
2.468,0.012,6.943
2.4685,0.006999999999999999,6.947
2.469,0.012,6.957000000000001
2.4695,0.017,6.977
2.47,0.006999999999999999,6.987
2.4705,0.012,6.9910000000000005
2.471,0.017,7.011
2.4715,0.012,7.021
2.472,0.006999999999999999,7.026
2.4725,0.012,7.04
2.473,0.006999999999999999,7.05
2.4735,0.012,7.055
2.474,0.012,7.07
2.4745,0.012,7.0889999999999995
2.475,-0.002,7.0889999999999995
2.4755,0.012,7.104
2.476,0.006999999999999999,7.117999999999999
2.4765,0.002,7.122999999999999
2.477,0.006999999999999999,7.132999999999999
2.4775,0.006999999999999999,7.148
2.478,0.006999999999999999,7.153
2.4785,0.006999999999999999,7.167000000000001
2.479,0.012,7.182
2.4795,0.006999999999999999,7.187
2.48,0.006999999999999999,7.192
2.4805,0.012,7.206
2.481,0.006999999999999999,7.221
2.4815,0.006999999999999999,7.226
2.482,0.006999999999999999,7.236000000000001
2.4825,0.006999999999999999,7.245
2.483,0.002,7.25
2.4835,0.012,7.27
2.484,0.002,7.28
2.4845,-0.002,7.275
2.485,0.006999999999999999,7.289
2.4855,0.006999999999999999,7.303999999999999
2.486,0.002,7.309
2.4865,0.002,7.319
2.487,0.002,7.327999999999999
2.4875,-0.002,7.337999999999999
2.488,0.006999999999999999,7.348
2.4885,0.012,7.358
2.489,0.002,7.3629999999999995
2.4895,0.006999999999999999,7.372000000000001
2.49,0.012,7.382000000000001
2.4905,-0.002,7.392
2.491,0.006999999999999999,7.392
2.4915,0.006999999999999999,7.4110000000000005
2.492,0.002,7.416
2.4925,0.006999999999999999,7.421
2.493,0.006999999999999999,7.431
2.4935,0.002,7.441
2.494,0.002,7.441
2.4945,0.002,7.4510000000000005
2.495,0.002,7.465
2.4955,-0.002,7.465
2.496,0.002,7.475
2.4965,0.002,7.485
2.497,-0.002,7.49
2.4975,0.002,7.495
2.498,0.006999999999999999,7.5089999999999995
2.4985,0.002,7.519
2.499,0.002,7.513999999999999
2.4995,0.006999999999999999,7.534
2.5,0.002,7.537999999999999
2.5005,0.002,7.537999999999999
2.501,0.006999999999999999,7.553
2.5015,0.002,7.563
2.502,-0.002,7.558
2.5025,0.002,7.5729999999999995
2.503,0.002,7.582000000000001
2.5035,-0.002,7.582000000000001
2.504,-0.002,7.587000000000001
2.5045,-0.002,7.597
2.505,-0.002,7.602
2.5055,0.002,7.612
2.506,-0.002,7.621
2.5065,-0.002,7.621
2.507,-0.002,7.626
2.5075,0.006999999999999999,7.641
2.508,-0.002,7.641
2.5085,-0.002,7.646
2.509,0.002,7.656000000000001
2.5095,0.002,7.665
2.51,-0.002,7.665
2.5105,0.002,7.675
2.511,-0.002,7.68
2.5115,-0.002,7.68
2.512,0.002,7.69
2.5125,-0.006999999999999999,7.7
2.513,-0.006999999999999999,7.695
2.5135,0.002,7.7
2.514,-0.002,7.7139999999999995
2.5145,-0.006999999999999999,7.709
2.515,-0.002,7.7139999999999995
2.5155,-0.002,7.724
2.516,-0.006999999999999999,7.724
2.5165,-0.002,7.734
2.517,-0.002,7.744
2.5175,-0.002,7.739
2.518,-0.002,7.747999999999999
2.5185,-0.002,7.757999999999999
2.519,-0.002,7.763
2.5195,-0.002,7.757999999999999
2.52,-0.002,7.768
2.5205,-0.002,7.773
2.521,-0.006999999999999999,7.778
2.5215,-0.002,7.7829999999999995
2.522,-0.006999999999999999,7.7829999999999995
2.5225,-0.006999999999999999,7.7829999999999995
2.523,-0.002,7.792000000000001
2.5235,-0.002,7.797000000000001
2.524,-0.006999999999999999,7.797000000000001
2.5245,-0.006999999999999999,7.8020000000000005
2.525,-0.002,7.807
2.5255,-0.006999999999999999,7.807
2.526,-0.006999999999999999,7.812
2.5265,-0.006999999999999999,7.817
2.527,-0.006999999999999999,7.817
2.5275,-0.006999999999999999,7.827000000000001
2.528,-0.006999999999999999,7.827000000000001
2.5285,-0.006999999999999999,7.827000000000001
2.529,-0.002,7.832000000000001
2.5295,-0.002,7.841
2.53,-0.006999999999999999,7.841
2.5305,-0.002,7.836
2.531,-0.002,7.846
2.5315,-0.006999999999999999,7.851
2.532,-0.006999999999999999,7.851
2.5325,-0.006999999999999999,7.856
2.533,-0.006999999999999999,7.856
2.5335,-0.012,7.856
2.534,-0.002,7.861000000000001
2.5345,-0.006999999999999999,7.8660000000000005
2.535,-0.012,7.861000000000001
2.5355,-0.006999999999999999,7.8660000000000005
2.536,-0.006999999999999999,7.875
2.5365,-0.012,7.871
2.537,-0.006999999999999999,7.871
2.5375,-0.006999999999999999,7.875
2.538,-0.012,7.875
2.5385,-0.006999999999999999,7.88
2.539,-0.006999999999999999,7.885
2.5395,-0.012,7.89
2.54,-0.006999999999999999,7.885
2.5405,-0.002,7.895
2.541,-0.012,7.89
2.5415,-0.006999999999999999,7.89
2.542,-0.002,7.895
2.5425,-0.006999999999999999,7.9
2.543,-0.017,7.895
2.5435,-0.006999999999999999,7.9
2.544,-0.012,7.905
2.5445,-0.006999999999999999,7.895
2.545,-0.006999999999999999,7.905
2.5455,-0.012,7.9
2.546,-0.017,7.895
2.5465,-0.006999999999999999,7.9
2.547,-0.006999999999999999,7.905
2.5475,-0.017,7.895
2.548,-0.012,7.89
2.5485,-0.006999999999999999,7.9
2.549,-0.017,7.895
2.5495,-0.017,7.895
2.55,-0.012,7.89
2.5505,-0.012,7.89
2.551,-0.012,7.885
2.5515,-0.012,7.89
2.552,-0.017,7.885
2.5525,-0.012,7.885
2.553,-0.012,7.88
2.5535,-0.017,7.885
2.554,-0.017,7.875
2.5545,-0.017,7.871
2.555,-0.017,7.875
2.5555,-0.017,7.871
2.556,-0.017,7.8660000000000005
2.5565,-0.017,7.8660000000000005
2.557,-0.017,7.856
2.5575,-0.017,7.861000000000001
2.558,-0.012,7.861000000000001
2.5585,-0.017,7.851
2.559,-0.017,7.846
2.5595,-0.012,7.856
2.56,-0.017,7.851
2.5605,-0.017,7.841
2.561,-0.017,7.846
2.5615,-0.022000000000000002,7.836
2.562,-0.017,7.836
2.5625,-0.017,7.836
2.563,-0.017,7.832000000000001
2.5635,-0.022000000000000002,7.822
2.564,-0.017,7.822
2.5645,-0.022000000000000002,7.822
2.565,-0.022000000000000002,7.812
2.5655,-0.017,7.807
2.566,-0.017,7.807
2.5665,-0.022000000000000002,7.8020000000000005
2.567,-0.022000000000000002,7.797000000000001
2.5675,-0.017,7.797000000000001
2.568,-0.022000000000000002,7.797000000000001
2.5685,-0.017,7.792000000000001
2.569,-0.017,7.787999999999999
2.5695,-0.022000000000000002,7.7829999999999995
2.57,-0.022000000000000002,7.778
2.5705,-0.017,7.778
2.571,-0.017,7.778
2.5715,-0.022000000000000002,7.763
2.572,-0.017,7.763
2.5725,-0.017,7.757999999999999
2.573,-0.022000000000000002,7.752999999999999
2.5735,-0.017,7.752999999999999
2.574,-0.022000000000000002,7.747999999999999
2.5745,-0.027000000000000003,7.739
2.575,-0.022000000000000002,7.739
2.5755,-0.022000000000000002,7.739
2.576,-0.027000000000000003,7.724
2.5765,-0.017,7.718999999999999
2.577,-0.017,7.718999999999999
2.5775,-0.022000000000000002,7.7139999999999995
2.578,-0.022000000000000002,7.705
2.5785,-0.017,7.705
2.579,-0.022000000000000002,7.7
2.5795,-0.022000000000000002,7.685
2.58,-0.022000000000000002,7.69
2.5805,-0.022000000000000002,7.685
2.581,-0.022000000000000002,7.67
2.5815,-0.022000000000000002,7.67
2.582,-0.022000000000000002,7.67
2.5825,-0.027000000000000003,7.6610000000000005
2.583,-0.022000000000000002,7.656000000000001
2.5835,-0.022000000000000002,7.646
2.584,-0.027000000000000003,7.636
2.5845,-0.022000000000000002,7.636
2.585,-0.027000000000000003,7.631
2.5855,-0.027000000000000003,7.617000000000001
2.586,-0.027000000000000003,7.612
2.5865,-0.017,7.612
2.587,-0.027000000000000003,7.607
2.5875,-0.027000000000000003,7.5920000000000005
2.588,-0.022000000000000002,7.5920000000000005
2.5885,-0.027000000000000003,7.587000000000001
2.589,-0.022000000000000002,7.577999999999999
2.5895,-0.022000000000000002,7.5729999999999995
2.59,-0.027000000000000003,7.568
2.5905,-0.027000000000000003,7.553
2.591,-0.017,7.553
2.5915,-0.022000000000000002,7.547999999999999
2.592,-0.032,7.534
2.5925,-0.022000000000000002,7.529
2.593,-0.027000000000000003,7.524
2.5935,-0.032,7.513999999999999
2.594,-0.027000000000000003,7.5089999999999995
2.5945,-0.022000000000000002,7.504
2.595,-0.032,7.49
2.5955,-0.027000000000000003,7.485
2.596,-0.027000000000000003,7.48
2.5965,-0.032,7.465
2.597,-0.027000000000000003,7.46
2.5975,-0.027000000000000003,7.455
2.598,-0.027000000000000003,7.4510000000000005
2.5985,-0.027000000000000003,7.436
2.599,-0.022000000000000002,7.431
2.5995,-0.027000000000000003,7.426
2.6,-0.027000000000000003,7.416
2.6005,-0.027000000000000003,7.4110000000000005
2.601,-0.027000000000000003,7.407
2.6015,-0.032,7.392
2.602,-0.027000000000000003,7.3870000000000005
2.6025,-0.027000000000000003,7.382000000000001
2.603,-0.037000000000000005,7.367999999999999
2.6035,-0.027000000000000003,7.358
2.604,-0.027000000000000003,7.353
2.6045,-0.032,7.343
2.605,-0.032,7.327999999999999
2.6055,-0.027000000000000003,7.327999999999999
2.606,-0.032,7.314
2.6065,-0.032,7.2989999999999995
2.607,-0.027000000000000003,7.2989999999999995
2.6075,-0.032,7.289
2.608,-0.027000000000000003,7.28
2.6085,-0.027000000000000003,7.28
2.609,-0.032,7.265
2.6095,-0.032,7.25
2.61,-0.027000000000000003,7.245
2.6105,-0.027000000000000003,7.2410000000000005
2.611,-0.032,7.231
2.6115,-0.032,7.221
2.612,-0.032,7.211
2.6125,-0.032,7.197
2.613,-0.027000000000000003,7.192
2.6135,-0.032,7.182
2.614,-0.037000000000000005,7.162000000000001
2.6145,-0.032,7.1579999999999995
2.615,-0.027000000000000003,7.148
2.6155,-0.037000000000000005,7.138
2.616,-0.032,7.122999999999999
2.6165,-0.032,7.117999999999999
2.617,-0.032,7.109
2.6175,-0.032,7.0889999999999995
2.618,-0.027000000000000003,7.0889999999999995
2.6185,-0.037000000000000005,7.079
2.619,-0.032,7.06
2.6195,-0.032,7.06
2.62,-0.032,7.055
2.6205,-0.037000000000000005,7.035
2.621,-0.032,7.026
2.6215,-0.032,7.021
2.622,-0.037000000000000005,7.001
2.6225,-0.032,6.996
2.623,-0.027000000000000003,6.987
2.6235,-0.037000000000000005,6.972
2.624,-0.037000000000000005,6.957000000000001
2.6245,-0.032,6.947
2.625,-0.037000000000000005,6.933
2.6255,-0.032,6.917999999999999
2.626,-0.032,6.917999999999999
2.6265,-0.037000000000000005,6.904
2.627,-0.037000000000000005,6.8839999999999995
2.6275,-0.037000000000000005,6.879
2.628,-0.032,6.869
2.6285,-0.042,6.85
2.629,-0.032,6.845
2.6295,-0.037000000000000005,6.83
2.63,-0.037000000000000005,6.821000000000001
2.6305,-0.032,6.811
2.631,-0.037000000000000005,6.801
2.6315,-0.037000000000000005,6.7860000000000005
2.632,-0.037000000000000005,6.772
2.6325,-0.032,6.7620000000000005
2.633,-0.037000000000000005,6.742000000000001
2.6335,-0.037000000000000005,6.737
2.634,-0.037000000000000005,6.723
2.6345,-0.042,6.702999999999999
2.635,-0.037000000000000005,6.6979999999999995
2.6355,-0.032,6.684
2.636,-0.042,6.669
2.6365,-0.037000000000000005,6.659
2.637,-0.032,6.645
2.6375,-0.042,6.635
2.638,-0.037000000000000005,6.62
2.6385,-0.037000000000000005,6.606
2.639,-0.046,6.601
2.6395,-0.042,6.5760000000000005
2.64,-0.037000000000000005,6.567
2.6405,-0.042,6.557
2.641,-0.042,6.542000000000001
2.6415,-0.037000000000000005,6.532
2.642,-0.037000000000000005,6.518
2.6425,-0.042,6.502999999999999
2.643,-0.037000000000000005,6.484
2.6435,-0.032,6.474
2.644,-0.042,6.459
2.6445,-0.042,6.444
2.645,-0.037000000000000005,6.435
2.6455,-0.042,6.42
2.646,-0.037000000000000005,6.4
2.6465,-0.037000000000000005,6.391
2.647,-0.042,6.376
2.6475,-0.042,6.357
2.648,-0.037000000000000005,6.352
2.6485,-0.037000000000000005,6.3420000000000005
2.649,-0.042,6.317
2.6495,-0.042,6.303
2.65,-0.042,6.297999999999999
2.6505,-0.042,6.278
2.651,-0.037000000000000005,6.263999999999999
2.6515,-0.037000000000000005,6.249
2.652,-0.042,6.234
2.6525,-0.037000000000000005,6.225
2.653,-0.042,6.205
2.6535,-0.046,6.19
2.654,-0.042,6.171
2.6545,-0.042,6.156000000000001
2.655,-0.042,6.142
2.6555,-0.046,6.117000000000001
2.656,-0.046,6.112
2.6565,-0.046,6.098
2.657,-0.046,6.077999999999999
2.6575,-0.042,6.068
2.658,-0.042,6.059
2.6585,-0.046,6.034
2.659,-0.042,6.024
2.6595,-0.042,6.01
2.66,-0.042,5.99
2.6605,-0.042,5.98
2.661,-0.037000000000000005,5.961
2.6615,-0.042,5.946000000000001
2.662,-0.042,5.9270000000000005
2.6625,-0.037000000000000005,5.917000000000001
2.663,-0.046,5.897
2.6635,-0.046,5.872999999999999
2.664,-0.042,5.8629999999999995
2.6645,-0.051,5.849
2.665,-0.051,5.824
2.6655,-0.042,5.814
2.666,-0.046,5.8
2.6665,-0.051,5.78
2.667,-0.046,5.77
2.6675,-0.046,5.751
2.668,-0.051,5.736000000000001
2.6685,-0.046,5.722
2.669,-0.046,5.707000000000001
2.6695,-0.051,5.683
2.67,-0.046,5.667999999999999
2.6705,-0.042,5.6579999999999995
2.671,-0.046,5.638999999999999
2.6715,-0.046,5.619
2.672,-0.046,5.6
2.6725,-0.046,5.585
2.673,-0.046,5.565
2.6735,-0.042,5.556
2.674,-0.046,5.531000000000001
2.6745,-0.046,5.507000000000001
2.675,-0.042,5.497000000000001
2.6755,-0.051,5.482
2.676,-0.046,5.457999999999999
2.6765,-0.046,5.4479999999999995
2.677,-0.046,5.428999999999999
2.6775,-0.051,5.414
2.678,-0.046,5.394
2.6785,-0.046,5.385
2.679,-0.046,5.36
2.6795,-0.046,5.346
2.68,-0.046,5.3260000000000005
2.6805,-0.051,5.306
2.681,-0.046,5.292000000000001
2.6815,-0.046,5.277
2.682,-0.046,5.257999999999999
2.6825,-0.046,5.233
2.683,-0.046,5.223
2.6835,-0.051,5.204
2.684,-0.046,5.184
2.6845,-0.046,5.17
2.685,-0.051,5.15
2.6855,-0.051,5.121
2.686,-0.046,5.111000000000001
2.6865,-0.051,5.092
2.687,-0.051,5.072
2.6875,-0.046,5.0569999999999995
2.688,-0.051,5.043
2.6885,-0.051,5.018
2.689,-0.046,5.0089999999999995
2.6895,-0.046,4.994
2.69,-0.051,4.965
2.6905,-0.051,4.945
2.691,-0.051,4.93
2.6915,-0.051,4.916
2.692,-0.046,4.891
2.6925,-0.046,4.872
2.693,-0.051,4.857
2.6935,-0.046,4.833
2.694,-0.046,4.8180000000000005
2.6945,-0.051,4.794
2.695,-0.046,4.774
2.6955,-0.046,4.7589999999999995
2.696,-0.051,4.74
2.6965,-0.051,4.716
2.697,-0.051,4.7010000000000005
2.6975,-0.051,4.686
2.698,-0.055999999999999994,4.667
2.6985,-0.046,4.6419999999999995
2.699,-0.046,4.628
2.6995,-0.055999999999999994,4.603
2.7,-0.046,4.5889999999999995
2.7005,-0.046,4.569
2.701,-0.055999999999999994,4.5489999999999995
2.7015,-0.051,4.525
2.702,-0.046,4.51
2.7025,-0.055999999999999994,4.4910000000000005
2.703,-0.055999999999999994,4.462
2.7035,-0.046,4.447
2.704,-0.051,4.4319999999999995
2.7045,-0.051,4.4030000000000005
2.705,-0.051,4.388
2.7055,-0.051,4.369
2.706,-0.055999999999999994,4.343999999999999
2.7065,-0.046,4.33
2.707,-0.051,4.31
2.7075,-0.055999999999999994,4.281000000000001
2.708,-0.051,4.271
2.7085,-0.055999999999999994,4.252
2.709,-0.055999999999999994,4.227
2.7095,-0.051,4.208
2.71,-0.055999999999999994,4.188
2.7105,-0.055999999999999994,4.168
2.711,-0.051,4.144
2.7115,-0.046,4.1339999999999995
2.712,-0.055999999999999994,4.11
2.7125,-0.051,4.085
2.713,-0.051,4.071000000000001
2.7135,-0.055999999999999994,4.046
2.714,-0.055999999999999994,4.022
2.7145,-0.051,4.002
2.715,-0.051,3.983
2.7155,-0.061,3.958
2.716,-0.055999999999999994,3.9389999999999996
2.7165,-0.055999999999999994,3.924
2.717,-0.061,3.9
2.7175,-0.051,3.88
2.718,-0.051,3.866
2.7185,-0.055999999999999994,3.8360000000000003
2.719,-0.055999999999999994,3.812
2.7195,-0.051,3.802
2.72,-0.055999999999999994,3.778
2.7205,-0.055999999999999994,3.753
2.721,-0.051,3.734
2.7215,-0.055999999999999994,3.714
2.722,-0.055999999999999994,3.685
2.7225,-0.051,3.675
2.723,-0.055999999999999994,3.6460000000000004
2.7235,-0.061,3.6210000000000004
2.724,-0.051,3.6069999999999998
2.7245,-0.051,3.582
2.725,-0.061,3.5580000000000003
2.7255,-0.055999999999999994,3.5380000000000003
2.726,-0.055999999999999994,3.5239999999999996
2.7265,-0.061,3.4989999999999997
2.727,-0.055999999999999994,3.475
2.7275,-0.051,3.455
2.728,-0.055999999999999994,3.431
2.7285,-0.055999999999999994,3.411
2.729,-0.055999999999999994,3.397
2.7295,-0.061,3.3680000000000003
2.73,-0.055999999999999994,3.353
2.7305,-0.055999999999999994,3.3280000000000003
2.731,-0.055999999999999994,3.3089999999999997
2.7315,-0.055999999999999994,3.28
2.732,-0.055999999999999994,3.26
2.7325,-0.055999999999999994,3.241
2.733,-0.055999999999999994,3.216
2.7335,-0.055999999999999994,3.197
2.734,-0.055999999999999994,3.177
2.7345,-0.061,3.148
2.735,-0.055999999999999994,3.123
2.7355,-0.055999999999999994,3.1039999999999996
2.736,-0.066,3.0789999999999997
2.7365,-0.061,3.06
2.737,-0.055999999999999994,3.04
2.7375,-0.055999999999999994,3.016
2.738,-0.061,2.991
2.7385,-0.055999999999999994,2.977
2.739,-0.055999999999999994,2.952
2.7395,-0.055999999999999994,2.923
2.74,-0.051,2.908
2.7405,-0.055999999999999994,2.889
2.741,-0.055999999999999994,2.86
2.7415,-0.055999999999999994,2.84
2.742,-0.055999999999999994,2.821
2.7425,-0.061,2.7910000000000004
2.743,-0.061,2.772
2.7435,-0.061,2.752
2.744,-0.061,2.728
2.7445,-0.055999999999999994,2.708
2.745,-0.051,2.6839999999999997
2.7455,-0.061,2.659
2.746,-0.061,2.64
2.7465,-0.055999999999999994,2.62
2.747,-0.066,2.591
2.7475,-0.055999999999999994,2.5669999999999997
2.748,-0.055999999999999994,2.552
2.7485,-0.061,2.523
2.749,-0.061,2.498
2.7495,-0.055999999999999994,2.484
2.75,-0.055999999999999994,2.464
2.7505,-0.061,2.435
2.751,-0.055999999999999994,2.415
2.7515,-0.055999999999999994,2.396
2.752,-0.061,2.3609999999999998
2.7525,-0.055999999999999994,2.342
2.753,-0.061,2.322
2.7535,-0.061,2.298
2.754,-0.055999999999999994,2.274
2.7545,-0.051,2.249
2.755,-0.061,2.225
2.7555,-0.055999999999999994,2.2
2.756,-0.055999999999999994,2.186
2.7565,-0.061,2.161
2.757,-0.061,2.1319999999999997
2.7575,-0.055999999999999994,2.112
2.758,-0.061,2.093
2.7585,-0.061,2.063
2.759,-0.061,2.044
2.7595,-0.061,2.024
2.76,-0.061,2.0
2.7605,-0.055999999999999994,1.976
2.761,-0.055999999999999994,1.956
2.7615,-0.061,1.9269999999999998
2.762,-0.061,1.902
2.7625,-0.055999999999999994,1.8880000000000001
2.763,-0.066,1.858
2.7635,-0.055999999999999994,1.829
2.764,-0.055999999999999994,1.814
2.7645,-0.061,1.79
2.765,-0.061,1.756
2.7655,-0.055999999999999994,1.7409999999999999
2.766,-0.061,1.722
2.7665,-0.071,1.692
2.767,-0.061,1.673
2.7675,-0.055999999999999994,1.6480000000000001
2.768,-0.061,1.619
2.7685,-0.055999999999999994,1.604
2.769,-0.055999999999999994,1.585
2.7695,-0.066,1.556
2.77,-0.061,1.531
2.7705,-0.051,1.5119999999999998
2.771,-0.061,1.4869999999999999
2.7715,-0.061,1.4580000000000002
2.772,-0.055999999999999994,1.4380000000000002
2.7725,-0.061,1.4140000000000001
2.773,-0.061,1.385
2.7735,-0.055999999999999994,1.365
2.774,-0.061,1.341
2.7745,-0.055999999999999994,1.311
2.775,-0.061,1.2919999999999998
2.7755,-0.061,1.272
2.776,-0.061,1.2429999999999999
2.7765,-0.061,1.2229999999999999
2.777,-0.061,1.204
2.7775,-0.061,1.175
2.778,-0.055999999999999994,1.155
2.7785,-0.061,1.136
2.779,-0.066,1.1059999999999999
2.7795,-0.055999999999999994,1.087
2.78,-0.055999999999999994,1.067
2.7805,-0.066,1.038
2.781,-0.055999999999999994,1.0090000000000001
2.7815,-0.055999999999999994,0.9890000000000001
2.782,-0.061,0.9690000000000001
2.7825,-0.061,0.94
2.783,-0.055999999999999994,0.9159999999999999
2.7835,-0.061,0.8959999999999999
2.784,-0.066,0.867
2.7845,-0.055999999999999994,0.8420000000000001
2.785,-0.061,0.823
2.7855,-0.066,0.794
2.786,-0.055999999999999994,0.774
2.7865,-0.061,0.755
2.787,-0.066,0.725
2.7875,-0.061,0.696
2.788,-0.055999999999999994,0.6809999999999999
2.7885,-0.061,0.657
2.789,-0.066,0.628
2.7895,-0.055999999999999994,0.608
2.79,-0.061,0.589
2.7905,-0.061,0.5539999999999999
2.791,-0.055999999999999994,0.54
2.7915,-0.061,0.51
2.792,-0.061,0.48100000000000004
2.7925,-0.055999999999999994,0.462
2.793,-0.055999999999999994,0.442
2.7935,-0.066,0.413
2.794,-0.061,0.39299999999999996
2.7945,-0.061,0.369
2.795,-0.066,0.344
2.7955,-0.061,0.32
2.796,-0.055999999999999994,0.3
2.7965,-0.061,0.266
2.797,-0.066,0.247
2.7975,-0.055999999999999994,0.22699999999999998
2.798,-0.066,0.203
2.7985,-0.061,0.17300000000000001
2.799,-0.055999999999999994,0.159
2.7995,-0.055999999999999994,0.129
2.8,-0.066,0.1
2.8005,-0.055999999999999994,0.085
2.801,-0.066,0.061
2.8015,-0.066,0.032
2.802,-0.061,0.012
2.8025,-0.061,-0.006999999999999999
2.803,-0.066,-0.042
2.8035,-0.061,-0.061
2.804,-0.061,-0.085
2.8045,-0.066,-0.11
2.805,-0.061,-0.134
2.8055,-0.055999999999999994,-0.154
2.806,-0.066,-0.183
2.8065,-0.055999999999999994,-0.212
2.807,-0.061,-0.23199999999999998
2.8075,-0.066,-0.252
2.808,-0.061,-0.281
2.8085,-0.055999999999999994,-0.3
2.809,-0.066,-0.325
2.8095,-0.061,-0.354
2.81,-0.055999999999999994,-0.369
2.8105,-0.061,-0.39799999999999996
2.811,-0.061,-0.42200000000000004
2.8115,-0.055999999999999994,-0.442
2.812,-0.061,-0.466
2.8125,-0.066,-0.496
2.813,-0.055999999999999994,-0.515
2.8135,-0.061,-0.535
2.814,-0.066,-0.564
2.8145,-0.066,-0.593
2.815,-0.061,-0.613
2.8155,-0.066,-0.642
2.816,-0.061,-0.667
2.8165,-0.061,-0.6809999999999999
2.817,-0.066,-0.706
2.8175,-0.061,-0.74
2.818,-0.055999999999999994,-0.755
2.8185,-0.066,-0.779
2.819,-0.061,-0.8029999999999999
2.8195,-0.055999999999999994,-0.828
2.82,-0.061,-0.847
2.8205,-0.061,-0.877
2.821,-0.055999999999999994,-0.9009999999999999
2.8215,-0.055999999999999994,-0.9159999999999999
2.822,-0.066,-0.95
2.8225,-0.061,-0.9690000000000001
2.823,-0.061,-0.9940000000000001
2.8235,-0.066,-1.023
2.824,-0.061,-1.043
2.8245,-0.061,-1.062
2.825,-0.066,-1.0959999999999999
2.8255,-0.061,-1.1159999999999999
2.826,-0.055999999999999994,-1.136
2.8265,-0.066,-1.16
2.827,-0.061,-1.194
2.8275,-0.061,-1.209
2.828,-0.061,-1.2329999999999999
2.8285,-0.061,-1.258
2.829,-0.061,-1.2819999999999998
2.8295,-0.066,-1.297
2.83,-0.061,-1.3359999999999999
2.8305,-0.061,-1.355
2.831,-0.061,-1.37
2.8315,-0.066,-1.399
2.832,-0.061,-1.4240000000000002
2.8325,-0.061,-1.443
2.833,-0.066,-1.4769999999999999
2.8335,-0.055999999999999994,-1.492
2.834,-0.055999999999999994,-1.516
2.8345,-0.066,-1.541
2.835,-0.061,-1.57
2.8355,-0.061,-1.585
2.836,-0.066,-1.614
2.8365,-0.061,-1.643
2.837,-0.061,-1.6580000000000001
2.8375,-0.066,-1.683
2.838,-0.061,-1.712
2.8385,-0.055999999999999994,-1.7309999999999999
2.839,-0.061,-1.746
2.8395,-0.066,-1.78
2.84,-0.061,-1.8
2.8405,-0.055999999999999994,-1.819
2.841,-0.066,-1.844
2.8415,-0.061,-1.868
2.842,-0.061,-1.893
2.8425,-0.061,-1.922
2.843,-0.061,-1.9409999999999998
2.8435,-0.061,-1.9609999999999999
2.844,-0.066,-1.99
2.8445,-0.061,-2.02
2.845,-0.061,-2.0340000000000003
2.8455,-0.066,-2.059
2.846,-0.061,-2.088
2.8465,-0.061,-2.103
2.847,-0.061,-2.127
2.8475,-0.061,-2.156
2.848,-0.061,-2.176
2.8485,-0.061,-2.195
2.849,-0.066,-2.225
2.8495,-0.055999999999999994,-2.249
2.85,-0.055999999999999994,-2.2640000000000002
2.8505,-0.066,-2.293
2.851,-0.061,-2.313
2.8515,-0.055999999999999994,-2.332
2.852,-0.066,-2.3569999999999998
2.8525,-0.061,-2.381
2.853,-0.055999999999999994,-2.405
2.8535,-0.061,-2.425
2.854,-0.061,-2.459
2.8545,-0.055999999999999994,-2.479
2.855,-0.066,-2.498
2.8555,-0.066,-2.5269999999999997
2.856,-0.061,-2.5469999999999997
2.8565,-0.061,-2.5669999999999997
2.857,-0.066,-2.596
2.8575,-0.055999999999999994,-2.615
2.858,-0.055999999999999994,-2.63
2.8585,-0.066,-2.659
2.859,-0.055999999999999994,-2.679
2.8595,-0.055999999999999994,-2.7030000000000003
2.86,-0.066,-2.733
2.8605,-0.061,-2.747
2.861,-0.055999999999999994,-2.772
2.8615,-0.061,-2.7910000000000004
2.862,-0.061,-2.825
2.8625,-0.055999999999999994,-2.84
2.863,-0.066,-2.864
2.8635,-0.061,-2.889
2.864,-0.055999999999999994,-2.908
2.8645,-0.061,-2.9330000000000003
2.865,-0.061,-2.957
2.8655,-0.055999999999999994,-2.977
2.866,-0.061,-2.9960000000000004
2.8665,-0.066,-3.0210000000000004
2.867,-0.055999999999999994,-3.045
2.8675,-0.061,-3.065
2.868,-0.066,-3.089
2.8685,-0.061,-3.109
2.869,-0.055999999999999994,-3.133
2.8695,-0.066,-3.158
2.87,-0.061,-3.177
2.8705,-0.051,-3.197
2.871,-0.061,-3.221
2.8715,-0.061,-3.25
2.872,-0.061,-3.265
2.8725,-0.061,-3.284
2.873,-0.061,-3.3139999999999996
2.8735,-0.055999999999999994,-3.333
2.874,-0.061,-3.358
2.8745,-0.061,-3.3819999999999997
2.875,-0.061,-3.397
2.8755,-0.061,-3.4160000000000004
2.876,-0.066,-3.446
2.8765,-0.061,-3.465
2.877,-0.061,-3.485
2.8775,-0.061,-3.509
2.878,-0.055999999999999994,-3.529
2.8785,-0.055999999999999994,-3.548
2.879,-0.061,-3.573
2.8795,-0.055999999999999994,-3.597
2.88,-0.055999999999999994,-3.617
2.8805,-0.055999999999999994,-3.636
2.881,-0.061,-3.661
2.8815,-0.055999999999999994,-3.685
2.882,-0.055999999999999994,-3.705
2.8825,-0.061,-3.7289999999999996
2.883,-0.055999999999999994,-3.748
2.8835,-0.055999999999999994,-3.763
2.884,-0.061,-3.792
2.8845,-0.061,-3.812
2.885,-0.055999999999999994,-3.832
2.8855,-0.061,-3.8560000000000003
2.886,-0.055999999999999994,-3.875
2.8865,-0.055999999999999994,-3.895
2.887,-0.061,-3.915
2.8875,-0.055999999999999994,-3.944
2.888,-0.055999999999999994,-3.958
2.8885,-0.055999999999999994,-3.983
2.889,-0.055999999999999994,-4.002
2.8895,-0.055999999999999994,-4.022
2.89,-0.055999999999999994,-4.042
2.8905,-0.055999999999999994,-4.066
2.891,-0.051,-4.081
2.8915,-0.061,-4.105
2.892,-0.055999999999999994,-4.129
2.8925,-0.051,-4.149
2.893,-0.055999999999999994,-4.164
2.8935,-0.055999999999999994,-4.1930000000000005
2.894,-0.055999999999999994,-4.212
2.8945,-0.055999999999999994,-4.227
2.895,-0.055999999999999994,-4.252
2.8955,-0.055999999999999994,-4.271
2.896,-0.055999999999999994,-4.2860000000000005
2.8965,-0.055999999999999994,-4.315
2.897,-0.055999999999999994,-4.335
2.8975,-0.055999999999999994,-4.349
2.898,-0.061,-4.374
2.8985,-0.055999999999999994,-4.398
2.899,-0.051,-4.413
2.8995,-0.055999999999999994,-4.4319999999999995
2.9,-0.055999999999999994,-4.452
2.9005,-0.051,-4.471
2.901,-0.055999999999999994,-4.486000000000001
2.9015,-0.061,-4.51
2.902,-0.055999999999999994,-4.53
2.9025,-0.051,-4.5489999999999995
2.903,-0.061,-4.579
2.9035,-0.051,-4.593
2.904,-0.055999999999999994,-4.6080000000000005
2.9045,-0.061,-4.637
2.905,-0.055999999999999994,-4.652
2.9055,-0.055999999999999994,-4.667
2.906,-0.055999999999999994,-4.691
2.9065,-0.055999999999999994,-4.716
2.907,-0.051,-4.73
2.9075,-0.055999999999999994,-4.75
2.908,-0.055999999999999994,-4.774
2.9085,-0.046,-4.784
2.909,-0.055999999999999994,-4.803
2.9095,-0.055999999999999994,-4.833
2.91,-0.051,-4.8469999999999995
2.9105,-0.051,-4.862
2.911,-0.055999999999999994,-4.886
2.9115,-0.051,-4.901
2.912,-0.055999999999999994,-4.916
2.9125,-0.055999999999999994,-4.94
2.913,-0.051,-4.955
2.9135,-0.055999999999999994,-4.974
2.914,-0.055999999999999994,-4.999
2.9145,-0.051,-5.013
2.915,-0.055999999999999994,-5.033
2.9155,-0.055999999999999994,-5.0569999999999995
2.916,-0.055999999999999994,-5.077
2.9165,-0.051,-5.087
2.917,-0.051,-5.106
2.9175,-0.051,-5.136
2.918,-0.051,-5.145
2.9185,-0.051,-5.16
2.919,-0.055999999999999994,-5.184
2.9195,-0.051,-5.199
2.92,-0.055999999999999994,-5.2139999999999995
2.9205,-0.055999999999999994,-5.2379999999999995
2.921,-0.051,-5.252999999999999
2.9215,-0.051,-5.267
2.922,-0.055999999999999994,-5.292000000000001
2.9225,-0.051,-5.311
2.923,-0.051,-5.3260000000000005
2.9235,-0.051,-5.341
2.924,-0.051,-5.365
2.9245,-0.046,-5.38
2.925,-0.051,-5.399
2.9255,-0.055999999999999994,-5.419
2.926,-0.051,-5.433
2.9265,-0.055999999999999994,-5.4479999999999995
2.927,-0.055999999999999994,-5.473
2.9275,-0.046,-5.482
2.928,-0.051,-5.502000000000001
2.9285,-0.051,-5.521
2.929,-0.046,-5.5360000000000005
2.9295,-0.051,-5.546
2.93,-0.051,-5.57
2.9305,-0.046,-5.585
2.931,-0.051,-5.6
2.9315,-0.055999999999999994,-5.629
2.932,-0.046,-5.638999999999999
2.9325,-0.046,-5.653
2.933,-0.051,-5.672999999999999
2.9335,-0.051,-5.692
2.934,-0.046,-5.707000000000001
2.9345,-0.046,-5.722
2.935,-0.051,-5.746
2.9355,-0.051,-5.756
2.936,-0.051,-5.77
2.9365,-0.046,-5.795
2.937,-0.046,-5.805
2.9375,-0.046,-5.819
2.938,-0.051,-5.843999999999999
2.9385,-0.046,-5.853
2.939,-0.046,-5.8629999999999995
2.9395,-0.051,-5.888
2.94,-0.046,-5.902
2.9405,-0.046,-5.917000000000001
2.941,-0.051,-5.937
2.9415,-0.042,-5.946000000000001
2.942,-0.051,-5.961
2.9425,-0.046,-5.98
2.943,-0.046,-5.995
2.9435,-0.042,-6.01
2.944,-0.051,-6.029
2.9445,-0.046,-6.0489999999999995
2.945,-0.046,-6.063
2.9455,-0.046,-6.0729999999999995
2.946,-0.051,-6.093
2.9465,-0.046,-6.103
2.947,-0.046,-6.117000000000001
2.9475,-0.046,-6.1370000000000005
2.948,-0.046,-6.151
2.9485,-0.046,-6.1610000000000005
2.949,-0.051,-6.186
2.9495,-0.046,-6.19
2.95,-0.046,-6.205
2.9505,-0.046,-6.225
2.951,-0.042,-6.239
2.9515,-0.042,-6.254
2.952,-0.046,-6.274
2.9525,-0.046,-6.287999999999999
2.953,-0.042,-6.297999999999999
2.9535,-0.046,-6.313
2.954,-0.046,-6.332000000000001
2.9545,-0.046,-6.3420000000000005
2.955,-0.042,-6.357
2.9555,-0.051,-6.376
2.956,-0.042,-6.386
2.9565,-0.042,-6.396
2.957,-0.051,-6.415
2.9575,-0.042,-6.425
2.958,-0.042,-6.44
2.9585,-0.046,-6.454
2.959,-0.042,-6.4639999999999995
2.9595,-0.037000000000000005,-6.479
2.96,-0.046,-6.492999999999999
2.9605,-0.042,-6.513
2.961,-0.037000000000000005,-6.518
2.9615,-0.042,-6.532
2.962,-0.046,-6.5520000000000005
2.9625,-0.037000000000000005,-6.557
2.963,-0.046,-6.571000000000001
2.9635,-0.051,-6.591
2.964,-0.042,-6.596
2.9645,-0.037000000000000005,-6.606
2.965,-0.046,-6.63
2.9655,-0.042,-6.64
2.966,-0.046,-6.645
2.9665,-0.046,-6.664
2.967,-0.042,-6.6739999999999995
2.9675,-0.042,-6.684
2.968,-0.046,-6.702999999999999
2.9685,-0.037000000000000005,-6.712999999999999
2.969,-0.037000000000000005,-6.718
2.9695,-0.037000000000000005,-6.737
2.97,-0.042,-6.752000000000001
2.9705,-0.037000000000000005,-6.757000000000001
2.971,-0.042,-6.772
2.9715,-0.042,-6.7860000000000005
2.972,-0.037000000000000005,-6.796
2.9725,-0.037000000000000005,-6.806
2.973,-0.042,-6.821000000000001
2.9735,-0.037000000000000005,-6.83
2.974,-0.037000000000000005,-6.835
2.9745,-0.042,-6.855
2.975,-0.037000000000000005,-6.864
2.9755,-0.037000000000000005,-6.874
2.976,-0.046,-6.894
2.9765,-0.037000000000000005,-6.899
2.977,-0.037000000000000005,-6.9079999999999995
2.9775,-0.042,-6.928
2.978,-0.037000000000000005,-6.933
2.9785,-0.032,-6.943
2.979,-0.037000000000000005,-6.952000000000001
2.9795,-0.037000000000000005,-6.972
2.98,-0.032,-6.972
2.9805,-0.037000000000000005,-6.987
2.981,-0.037000000000000005,-7.001
2.9815,-0.032,-7.006
2.982,-0.037000000000000005,-7.016
2.9825,-0.037000000000000005,-7.035
2.983,-0.032,-7.035
2.9835,-0.037000000000000005,-7.045
2.984,-0.042,-7.06
2.9845,-0.037000000000000005,-7.07
2.985,-0.037000000000000005,-7.079
2.9855,-0.042,-7.093999999999999
2.986,-0.037000000000000005,-7.099
2.9865,-0.037000000000000005,-7.104
2.987,-0.042,-7.117999999999999
2.9875,-0.032,-7.127999999999999
2.988,-0.032,-7.132999999999999
2.9885,-0.037000000000000005,-7.148
2.989,-0.032,-7.1579999999999995
2.9895,-0.032,-7.162000000000001
2.99,-0.037000000000000005,-7.1770000000000005
2.9905,-0.037000000000000005,-7.187
2.991,-0.032,-7.187
2.9915,-0.037000000000000005,-7.2010000000000005
2.992,-0.037000000000000005,-7.211
2.9925,-0.032,-7.221
2.993,-0.037000000000000005,-7.226
2.9935,-0.037000000000000005,-7.236000000000001
2.994,-0.032,-7.245
2.9945,-0.032,-7.255
2.995,-0.037000000000000005,-7.265
2.9955,-0.032,-7.275
2.996,-0.032,-7.275
2.9965,-0.037000000000000005,-7.284
2.997,-0.032,-7.2989999999999995
2.9975,-0.027000000000000003,-7.303999999999999
2.998,-0.032,-7.314
2.9985,-0.032,-7.324
2.999,-0.027000000000000003,-7.324
2.9995,-0.032,-7.332999999999999
3.0,-0.032,-7.348
