Data from TL_Subt6_09-57-41-135.txt Node
Date: Mon Feb 25 09:57:41 CET 2019
User: MyStuff
Spectrometer: S04994
Autoset integration time: false
Trigger mode: 0
Resolution mode: 1024 pixels
Integration Time (sec): 1,500000E-1
Scans to average: 10
Nonlinearity correction enabled: false
Boxcar width: 0
XAxis mode: Wavelengths
Baseline correction enabled: false
Stop averaging: false
Number of Pixels in Spectrum: 1024
>>>>>Begin Spectral Data<<<<<
336,281	5
336,738	2
337,196	2,8
337,654	4,2
338,111	4,5
338,569	4,7
339,027	5
339,484	4,2
339,942	1,8
340,4	5,3
340,858	6,6
341,315	6,7
341,773	5,8
342,231	2,3
342,689	4,7
343,147	5,1
343,605	6
344,063	3,7
344,521	5,1
344,98	3,9
345,438	3
345,896	6,1
346,354	4,9
346,813	3,8
347,271	6,3
347,729	4
348,188	5
348,646	2,9
349,104	4,8
349,563	4
350,021	6,7
350,48	4,4
350,939	4,7
351,397	4,6
351,856	5,2
352,315	5,4
352,773	3,4
353,232	5,7
353,691	6
354,15	5,5
354,609	5,2
355,068	3
355,526	6,4
355,985	5,5
356,444	5,1
356,904	6
357,363	4,8
357,822	4,4
358,281	6,6
358,74	4,3
359,199	5,8
359,659	3,9
360,118	7,5
360,577	6,3
361,037	5,3
361,496	3,5
361,955	5,5
362,415	8,2
362,874	6,4
363,334	7,7
363,793	8,5
364,253	25,4
364,713	62,6
365,172	106,2
365,632	114,8
366,092	84
366,552	48,5
367,011	28,9
367,471	15,7
367,931	8,3
368,391	6,2
368,851	5,6
369,311	4,5
369,771	5,9
370,231	5,3
370,691	8
371,151	7,1
371,612	5
372,072	2,3
372,532	6,1
372,992	5,7
373,453	6,3
373,913	4,2
374,373	6,1
374,834	4,8
375,294	4,9
375,755	3,7
376,215	6
376,676	5,8
377,136	6,3
377,597	5,9
378,058	6,4
378,518	4,1
378,979	6,9
379,44	8,5
379,901	9,5
380,362	4,7
380,822	8,4
381,283	7,3
381,744	7,2
382,205	4,9
382,666	6,6
383,127	4,2
383,588	8,1
384,049	7,2
384,511	4,2
384,972	2,5
385,433	8
385,894	4,6
386,356	5,1
386,817	5,7
387,278	5,8
387,74	4,3
388,201	3,8
388,663	4,4
389,124	3,2
389,586	6,2
390,047	4,3
390,509	6,4
390,97	6,5
391,432	6,9
391,894	9,5
392,356	3,5
392,817	3,7
393,279	5,1
393,741	6
394,203	4,6
394,665	4,7
395,127	5
395,589	-3,4
396,051	7,7
396,513	5,6
396,975	5,1
397,437	7,1
397,899	7,6
398,362	6,55
398,824	5,5
399,286	8
399,748	9,1
400,211	7,9
400,673	8,8
401,135	8,8
401,598	10,8
402,06	12
402,523	15,7
402,986	18,1
403,448	37,6
403,911	126,2
404,373	423,2
404,836	735,9
405,299	702,5
405,762	379,2
406,224	84,6
406,687	38,1
407,15	40,9
407,613	79,4
408,076	102,6
408,539	89,9
409,002	49,9
409,465	25,3
409,928	23,4
410,391	20,2
410,854	22,2
411,318	21,4
411,781	24,8
412,244	22,6
412,707	23
413,171	22,4
413,634	25,9
414,097	26,6
414,561	26,9
415,024	27,5
415,488	30,5
415,951	30,1
416,415	32,5
416,879	34
417,342	34,6
417,806	35,7
418,27	37,6
418,733	37
419,197	36,7
419,661	37,1
420,125	41,8
420,589	43,5
421,053	42,6
421,517	41,3
421,981	43
422,445	46,5
422,909	47,7
423,373	46,3
423,837	46,5
424,301	51,4
424,765	53
425,23	54,4
425,694	51,3
426,158	56,7
426,623	60,7
427,087	62,2
427,551	66,2
428,016	65,8
428,48	67,7
428,945	72,5
429,409	70,3
429,874	76
430,339	78,3
430,803	81,4
431,268	82,9
431,733	80,3
432,198	86,3
432,662	91,9
433,127	99,2
433,592	104,3
434,057	118,4
434,522	158,8
434,987	315,8
435,452	986,9
435,917	2076,3
436,382	2228,8
436,847	1454,3
437,312	430,9
437,778	172,1
438,243	135,9
438,708	127,6
439,173	120,1
439,639	118,7
440,104	115,2
440,57	121,2
441,035	121,5
441,5	119,7
441,966	121,3
442,431	124,3
442,897	125,8
443,363	125,7
443,828	123
444,294	128,3
444,76	124,4
445,226	126,3
445,691	128,3
446,157	132,6
446,623	129,4
447,089	130,1
447,555	131,7
448,021	134,3
448,487	135,8
448,953	132,5
449,419	137,3
449,885	137,6
450,351	138,3
450,817	141,3
451,284	140,9
451,75	142,6
452,216	141,5
452,683	145,6
453,149	144,6
453,615	150,8
454,082	143,8
454,548	146,7
455,015	145,5
455,481	147,9
455,948	143,7
456,414	145
456,881	141,1
457,348	141,9
457,814	141,2
458,281	139,4
458,748	134,7
459,215	134,9
459,682	132,9
460,149	133,2
460,615	134,7
461,082	128,5
461,549	127,7
462,016	130,1
462,484	128,3
462,951	129,4
463,418	129,1
463,885	124,6
464,352	126,5
464,819	128,1
465,287	128,1
465,754	122,7
466,221	120,7
466,689	122
467,156	120,1
467,624	121,8
468,091	119,6
468,559	112,1
469,026	111
469,494	109,7
469,961	109,2
470,429	105,2
470,897	102,7
471,364	102,1
471,832	103,9
472,3	99,5
472,768	100
473,236	98,9
473,704	96,8
474,172	97,3
474,64	95,7
475,108	93,9
475,576	92,5
476,044	88
476,512	90
476,98	92
477,448	90,7
477,917	91,8
478,385	90,9
478,853	91,8
479,321	101
479,79	100
480,258	109,9
480,727	116,4
481,195	119,5
481,664	137,5
482,132	160,3
482,601	178,2
483,069	213,9
483,538	261,4
484,007	302,2
484,476	342,8
484,944	406,9
485,413	459,1
485,882	540
486,351	594,1
486,82	633
487,289	638,6
487,758	643,7
488,227	620,5
488,696	589,7
489,165	560,7
489,634	520,7
490,103	504,9
490,572	484,6
491,041	461,6
491,511	463,6
491,98	445,8
492,449	437
492,919	412,3
493,388	387,6
493,858	375,6
494,327	358
494,796	338,2
495,266	323,7
495,736	311,2
496,205	295,9
496,675	287,7
497,145	284
497,614	267,3
498,084	258,7
498,554	238,6
499,024	218,85
499,494	199,1
499,963	181,6
500,433	163,7
500,903	149
501,373	133,3
501,843	124,5
502,313	109,6
502,784	102,1
503,254	95,1
503,724	87,9
504,194	81,4
504,664	74,5
505,135	73,1
505,605	67,5
506,075	65,8
506,546	61,3
507,016	55,9
507,487	55,7
507,957	56,9
508,428	56,8
508,898	56,1
509,369	55,5
509,839	53,9
510,31	55,3
510,781	50
511,252	52
511,722	51
512,193	50,7
512,664	52,9
513,135	50,9
513,606	51,8
514,077	49,6
514,548	51,1
515,019	47,3
515,49	46
515,961	45,1
516,432	44,8
516,903	46,4
517,375	44,7
517,846	44,1
518,317	42,3
518,788	35,6
519,26	37,1
519,731	39,9
520,203	37,4
520,674	36,5
521,145	35,8
521,617	32,5
522,089	32,9
522,56	33,2
523,032	31,4
523,503	32,7
523,975	31,5
524,447	31,7
524,919	33
525,39	31,1
525,862	32,8
526,334	32,4
526,806	36,3
527,278	33,3
527,75	36,7
528,222	39,6
528,694	36,9
529,166	35,6
529,638	38,6
530,111	39,7
530,583	41,8
531,055	45,1
531,527	46,2
532	56,5
532,472	71,1
532,944	102,2
533,417	143,8
533,889	160
534,362	146,8
534,834	129
535,307	126,2
535,779	143,8
536,252	175,5
536,725	228
537,197	300,3
537,67	403,2
538,143	511,1
538,616	613,4
539,088	718,5
539,561	896,3
540,034	1189,3
540,507	1618,8
540,98	2288,9
541,453	3204,5
541,926	3932,6
542,399	4244,9
542,872	4037,2
543,346	3734,7
543,819	3665,2
544,292	3668
544,765	3648,1
545,239	3823,5
545,712	5395,4
546,185	6792,8
546,659	6475,6
547,132	4211,3
547,606	2655,5
548,079	2195,1
548,553	1939,2
549,026	1763,2
549,5	1608,6
549,974	1432,5
550,447	1246,5
550,921	1088,4
551,395	969,8
551,869	875,9
552,342	786,2
552,816	707,6
553,29	615,2
553,764	531,7
554,238	440
554,712	357,1
555,186	288,5
555,66	243,6
556,134	204
556,609	181,4
557,083	162,6
557,557	147,3
558,031	135,7
558,506	120,7
558,98	111,5
559,454	102,3
559,929	96,1
560,403	91
560,878	85,8
561,352	82,3
561,827	79,8
562,301	81,4
562,776	76,6
563,251	72
563,725	66,2
564,2	67,5
564,675	65,8
565,15	61
565,624	57,1
566,099	53,9
566,574	56,9
567,049	47,2
567,524	53,5
567,999	50,3
568,474	50,3
568,949	48,7
569,424	48,7
569,899	46,3
570,375	45,5
570,85	41,2
571,325	41
571,8	41,4
572,276	43,1
572,751	47,1
573,227	48,8
573,702	50,5
574,177	57,4
574,653	55,9
575,129	72,1
575,604	87,7
576,08	157
576,555	410
577,031	660,8
577,507	657
577,983	432,1
578,458	402,9
578,934	650,7
579,41	760,7
579,886	722,2
580,362	630,4
580,838	606,3
581,314	557
581,79	559,2
582,266	639,8
582,742	746,1
583,218	843,9
583,694	895,6
584,171	912,5
584,647	877,8
585,123	819,5
585,6	774,3
586,076	741,3
586,552	824,2
587,029	1070,4
587,505	1256,7
587,982	1195,9
588,458	920,5
588,935	686,1
589,412	576,2
589,888	537
590,365	522,6
590,842	523,3
591,318	533
591,795	566,2
592,272	656,8
592,749	796,6
593,226	915,1
593,703	858
594,18	684,3
594,657	493,4
595,134	380,3
595,611	329,3
596,088	312,9
596,565	299,8
597,042	294,2
597,519	291
597,997	313,6
598,474	368,4
598,951	461,6
599,429	537,6
599,906	558,1
600,384	506,7
600,861	408
601,339	328,3
601,816	259,1
602,294	220,1
602,771	195,8
603,249	189,7
603,727	194,1
604,204	207,5
604,682	214,6
605,16	227,3
605,638	242,9
606,116	264,2
606,593	293,9
607,071	340,9
607,549	390,3
608,027	474,6
608,505	601
608,984	789,9
609,462	1118
609,94	1783,2
610,418	3285,3
610,896	6098
611,374	8386,4
611,853	8199,7
612,331	6206,6
612,809	4115,9
613,288	3155,1
613,766	2697,9
614,245	2439,2
614,723	2224,7
615,202	1946,2
615,68	1567,5
616,159	1227,1
616,638	966,4
617,116	808,2
617,595	719,2
618,074	642,8
618,553	602
619,031	603,9
619,51	616,3
619,989	646,7
620,468	686,3
620,947	708,7
621,426	700,2
621,905	684,8
622,384	672,9
622,863	669
623,343	691,8
623,822	693,8
624,301	703,7
624,78	694,1
625,26	691,5
625,739	682
626,218	663,4
626,698	654,1
627,177	628
627,657	600
628,136	581,3
628,616	561
629,095	556,7
629,575	591,9
630,054	705,3
630,534	910,1
631,014	1077,5
631,494	1052,6
631,973	788,2
632,453	502,1
632,933	319
633,413	225,8
633,893	179,2
634,373	157,7
634,853	144
635,333	129,5
635,813	124,2
636,293	118,1
636,773	114,3
637,254	103,9
637,734	99,3
638,214	91
638,694	89,6
639,175	89,1
639,655	85
640,135	85,6
640,616	83,3
641,096	87
641,577	84,9
642,057	87,6
642,538	89,7
643,019	89,4
643,499	93,3
643,98	94,4
644,461	97,2
644,941	97,2
645,422	97,2
645,903	97,1
646,384	92,1
646,865	89,7
647,346	94
647,827	96,1
648,308	101,7
648,789	108,5
649,27	130,4
649,751	193,8
650,232	272,5
650,713	313,1
651,195	280,7
651,676	214,7
652,157	167,4
652,639	153,9
653,12	160,9
653,601	155,2
654,083	137,4
654,564	118,3
655,046	104,1
655,527	96,3
656,009	93,8
656,491	92,4
656,972	99,5
657,454	103,3
657,936	107,8
658,417	103,7
658,899	89,3
659,381	73,6
659,863	71,7
660,345	65,9
660,827	68,9
661,309	82,9
661,791	118
662,273	169,9
662,755	185,9
663,237	168,8
663,719	134,2
664,201	106
664,684	86
665,166	78,5
665,648	78,2
666,131	73,2
666,613	76,9
667,095	77,1
667,578	78,3
668,06	75,4
668,543	75,7
669,025	71,4
669,508	68,5
669,991	71,2
670,473	64,8
670,956	64,8
671,439	64,9
671,922	62,7
672,404	60,9
672,887	62,4
673,37	57,1
673,853	54,4
674,336	56,2
674,819	53,4
675,302	50,8
675,785	54,3
676,268	50,7
676,751	49,3
677,234	53,2
677,718	54,3
678,201	54,8
678,684	58,4
679,167	62,5
679,651	66,3
680,134	67,4
680,618	68
681,101	67,6
681,585	66,2
682,068	60,9
682,552	59,3
683,035	58,9
683,519	55,2
684,003	53,5
684,486	51,7
684,97	54,2
685,454	56,5
685,938	69
686,421	89,5
686,905	120,5
687,389	149,4
687,873	158,9
688,357	141,3
688,841	109,8
689,325	78,3
689,809	55,1
690,294	43
690,778	47
691,262	41,8
691,746	36,6
692,23	38,8
692,715	55,9
693,199	89
693,684	114,4
694,168	105,5
694,652	74,2
695,137	48,3
695,621	32,6
696,106	27,6
696,591	23,9
697,075	20
697,56	19,8
698,045	18,1
698,529	20,4
699,014	20,2
699,499	20,2
699,984	22,6
700,469	20,1
700,954	23,4
701,439	25,3
701,924	23,6
702,409	28,9
702,894	34,2
703,379	48,4
703,864	58,1
704,349	64,9
704,834	84,5
705,32	112
705,805	161,2
706,29	237,5
706,776	297,1
707,261	312
707,747	284,9
708,232	295
708,718	339,2
709,203	357,2
709,689	282,1
710,174	195,3
710,66	143,2
711,146	151,5
711,631	213,8
712,117	276,3
712,603	277
713,089	224,5
713,575	140,1
714,06	79,7
714,546	52,4
715,032	33,9
715,518	26,9
716,004	21,2
716,491	18,7
716,977	12,6
717,463	14,2
717,949	15,4
718,435	14,6
718,922	12,3
719,408	13,4
719,894	13,5
720,381	14,2
720,867	12,3
721,353	12,8
721,84	13,8
722,326	13,5
722,813	11,2
723,3	11,4
723,786	11,4
724,273	10,5
724,759	11,8
725,246	11,4
725,733	8,8
726,22	11
726,707	13
727,194	11
727,68	10,6
728,167	10,4
728,654	12,2
729,141	24,5
729,628	26,7
730,116	29,5
730,603	27,2
731,09	22
731,577	16,5
732,064	16,6
732,552	12,7
733,039	14
733,526	11,9
734,014	4
734,501	8,8
734,988	7,9
735,476	7,7
735,963	5,6
736,451	5,4
736,939	6,3
737,426	8,6
737,914	7,9
738,402	7,8
738,889	7,6
739,377	6,1
739,865	8,9
740,353	7,3
740,841	10,6
741,329	12,9
741,817	12,9
742,305	17,2
742,793	16
743,281	15,4
743,769	12,4
744,257	9,4
744,745	9,5
745,233	7,9
745,722	8,2
746,21	9,2
746,698	8,5
747,187	9
747,675	7,1
748,163	3,3
748,652	5
749,14	7,2
749,629	6,7
750,117	4,7
750,606	5,3
751,095	5,2
751,583	4,1
752,072	4,2
752,561	6,4
753,05	5,5
753,538	7,4
754,027	4,4
754,516	3,3
755,005	4,9
755,494	4,8
755,983	7
756,472	5
756,961	5,7
757,45	4,5
757,94	7,8
758,429	14,9
758,918	20
759,407	32,7
759,896	47,7
760,386	45,8
760,875	31,1
761,365	16,3
761,854	4,9
762,344	4,6
762,833	5,8
763,323	5,3
763,812	5,4
764,302	5,1
764,791	4,2
765,281	4,3
765,771	4,8
766,261	3,4
766,75	3,5
767,24	5,2
767,73	5,2
768,22	5,8
768,71	7,7
769,2	10,7
769,69	9,1
770,18	8,7
770,67	4,9
771,16	5
771,65	2,1
772,141	4,7
772,631	6,5
773,121	6,6
773,611	3,6
774,102	4,6
774,592	5,1
775,083	3
775,573	-0,2
776,064	5,1
776,554	3,9
777,045	6
777,535	3,7
778,026	3,4
778,517	3,7
779,007	3,5
779,498	3,5
779,989	1,6
780,48	5,5
780,97	3,7
781,461	4
781,952	4,8
782,443	4,5
782,934	3,1
783,425	3,4
783,916	3,3
784,407	4,4
784,899	5,7
785,39	6,2
785,881	6
786,372	4,7
786,864	2,5
787,355	3,3
787,846	4,3
788,338	3,4
788,829	2,9
789,32	-2,6
789,812	2,9
790,304	1,7
790,795	4,6
791,287	2,5
791,778	5,6
792,27	2,5
792,762	4,4
793,254	3
793,745	2,5
794,237	4,5
794,729	5,2
795,221	2,5
795,713	2,3
796,205	4,1
796,697	3,9
797,189	4,6
797,681	4,5
798,173	2,8
798,665	1,5
799,157	4,7
799,65	2,5
800,142	2,4
800,634	3,4
801,127	2,7
801,619	4,3
802,111	4,8
802,604	2,8
803,096	4,3
803,589	4,7
804,081	6,5
804,574	4
805,067	8
805,559	5
806,052	7,4
806,545	4,8
807,037	4,3
807,53	7,1
808,023	25,3
808,516	48,7
809,009	60,5
809,502	60,4
809,995	51,3
810,488	63,5
810,981	68,9
811,474	59,7
811,967	36,6
812,46	21,5
812,954	12,3
813,447	8,5
813,94	4,9
814,433	6,9
814,927	7,2
815,42	8,3
815,914	8,7
816,407	6,8
816,901	5,5
817,394	5,4
817,888	6,9
818,381	7,9
818,875	8,3
819,369	10,6
819,862	3,8
820,356	5,7
820,85	5,3
821,344	6
821,838	2,2
822,331	3,7
822,825	4,8
